#EXPORTTYPE:           ,DATA ALL                                                               
#FILE:                 ,fmtl001Arun1.ngb-sle                                                   
#FORMAT:               ,NETZSCH5                                                               
#FTYPE:                ,ANSI                                                                   
#IDENTITY:             ,fmt olig base                                                          
#DECIMAL:              ,POINT                                                                  
#SEPARATOR:            ,COMMA                                                                  
#MTYPE:                ,DIL                                                                    
#INSTRUMENT:           ,NETZSCH DIL 402C                                                       
#PROJECT:              ,feldspar                                                               
#DATE/TIME:            ,8/16/2019 10:53:52 AM (UTC-5)                                          
#CORR. FILE:           ,                                                                       
#TEMPCAL:              ,TCALZERO.TMX                                                           
#LABORATORY:           ,Mineral Physics                                                        
#OPERATOR:             ,PAG                                                                    
#REMARK:               ,bare, norm start, for oligoclase fmt base 11.19 by 8.8 mm, probably 001
#SAMPLE:               ,fmt001A                                                                
#SAMPLE LENGTH /mm:    ,11.19                                                                  
#MATERIAL:             ,sapphire stnd                                                          
#MEASMODE:             ,Standard Expansion                                                     
#PURGE GAS 1:          ,ARGON                                                                  
#FLOW RATE 1 /(ml/min):,75                                                                     
#M.RANGE /µm:          ,500                                                                    
#CORR. CODE:           ,010                                                                    
#RANGE:                ,20.0°C/3.0(K/min)/990.0°C                                              
#SEGMENT:              ,S1/1                                                                   
#SEG. 1:               ,20.0°C/3.0(K/min)/990.0°C                                              

##Temp./°C,Time/min,dL/Lo,Alpha/(1/K)
  22.05900,  0.00000, 1.8974e-005,-4.6302e-006
  22.55900,  4.24315, 4.7375e-006,-7.4690e-006
  23.05900,  4.62042, 1.9210e-007,-8.6272e-006
  23.55900,  4.88485,-3.3482e-006,-6.4363e-006
  24.05900,  5.09953,-6.1220e-006,-5.5363e-006
  24.55900,  5.28512,-8.6034e-006,-3.7489e-006
  25.05900,  5.45107,-1.0214e-005,-2.9410e-006
  25.55900,  5.60324,-1.1591e-005,-2.0632e-006
  26.05900,  5.74508,-1.2519e-005,-1.3741e-006
  26.55900,  5.87915,-1.3150e-005,-2.8161e-007
  27.05900,  6.00716,-1.3089e-005, 2.1445e-007
  27.55900,  6.13035,-1.3103e-005, 4.8749e-007
  28.05900,  6.24929,-1.2759e-005, 1.1110e-006
  28.55900,  6.36512,-1.2019e-005, 1.6947e-006
  29.05900,  6.47808,-1.0911e-005, 2.5122e-006
  29.55900,  6.58876,-9.4982e-006, 3.1442e-006
  30.05900,  6.69761,-7.5035e-006, 3.7123e-006
  30.55900,  6.80504,-5.8104e-006, 4.1880e-006
  31.05900,  6.91107,-3.6424e-006, 4.6278e-006
  31.55900,  7.01620,-1.2314e-006, 4.6909e-006
  32.05900,  7.12073, 1.3293e-006, 5.2135e-006
  32.55900,  7.22467, 4.2740e-006, 6.0730e-006
  33.05900,  7.32813, 7.3359e-006, 6.3353e-006
  33.55900,  7.43111, 1.0562e-005, 6.6989e-006
  34.05900,  7.53378, 1.4153e-005, 7.4073e-006
  34.55900,  7.63610, 1.7713e-005, 7.5830e-006
  35.05900,  7.73820, 2.1530e-005, 7.7995e-006
  35.55900,  7.83989, 2.5546e-005, 8.3745e-006
  36.05900,  7.94150, 2.9930e-005, 8.9689e-006
  36.55900,  8.04298, 3.4730e-005, 9.1201e-006
  37.05900,  8.14441, 3.9286e-005, 8.8630e-006
  37.55900,  8.24576, 4.3637e-005, 9.2762e-006
  38.05900,  8.34730, 4.8317e-005, 9.8318e-006
  38.55900,  8.44876, 5.3516e-005, 1.0339e-005
  39.05900,  8.55037, 5.8663e-005, 9.8989e-006
  39.55900,  8.65225, 6.3801e-005, 1.0401e-005
  40.05900,  8.75401, 6.8907e-005, 1.0484e-005
  40.55900,  8.85560, 7.4248e-005, 1.0916e-005
  41.05900,  8.95744, 7.9793e-005, 1.1318e-005
  41.55900,  9.05907, 8.4980e-005, 1.0887e-005
  42.05900,  9.16087, 9.0879e-005, 1.0625e-005
  42.55900,  9.26248, 9.6038e-005, 1.1565e-005
  43.05900,  9.36376, 1.0207e-004, 1.1628e-005
  43.55900,  9.46494, 1.0788e-004, 1.1631e-005
  44.05900,  9.56618, 1.1349e-004, 1.1805e-005
  44.55900,  9.66688, 1.1962e-004, 1.1856e-005
  45.05900,  9.76736, 1.2574e-004, 1.2270e-005
  45.55900,  9.86752, 1.3133e-004, 1.2086e-005
  46.05900,  9.96737, 1.3759e-004, 1.2257e-005
  46.55900, 10.06692, 1.4365e-004, 1.2351e-005
  47.05900, 10.16647, 1.5032e-004, 1.2577e-005
  47.55900, 10.26542, 1.5640e-004, 1.2152e-005
  48.05900, 10.36400, 1.6287e-004, 1.2681e-005
  48.55900, 10.46228, 1.6886e-004, 1.2504e-005
  49.05900, 10.56038, 1.7504e-004, 1.2829e-005
  49.55900, 10.65808, 1.8192e-004, 1.3222e-005
  50.05900, 10.75549, 1.8839e-004, 1.2872e-005
  50.55900, 10.85217, 1.9449e-004, 1.3347e-005
  51.05900, 10.94851, 2.0160e-004, 1.2930e-005
  51.55900, 11.04467, 2.0760e-004, 1.3171e-005
  52.05900, 11.14055, 2.1432e-004, 1.3413e-005
  52.55900, 11.23590, 2.2141e-004, 1.3409e-005
  53.05900, 11.33079, 2.2796e-004, 1.3264e-005
  53.55900, 11.42549, 2.3463e-004, 1.3514e-005
  54.05900, 11.52002, 2.4144e-004, 1.3040e-005
  54.55900, 11.61462, 2.4776e-004, 1.3047e-005
  55.05900, 11.70898, 2.5456e-004, 1.4081e-005
  55.55900, 11.80304, 2.6136e-004, 1.3534e-005
  56.05900, 11.89706, 2.6834e-004, 1.4042e-005
  56.55900, 11.99097, 2.7517e-004, 1.4112e-005
  57.05900, 12.08471, 2.8260e-004, 1.5010e-005
  57.55900, 12.17820, 2.8974e-004, 1.3884e-005
  58.05900, 12.27133, 2.9692e-004, 1.4377e-005
  58.55900, 12.36442, 3.0416e-004, 1.4955e-005
  59.05900, 12.45746, 3.1155e-004, 1.4297e-005
  59.55900, 12.55032, 3.1896e-004, 1.4804e-005
  60.05900, 12.64314, 3.2614e-004, 1.4763e-005
  60.55900, 12.73612, 3.3382e-004, 1.4577e-005
  61.05900, 12.82882, 3.4111e-004, 1.5013e-005
  61.55900, 12.92159, 3.4827e-004, 1.4538e-005
  62.05900, 13.01449, 3.5591e-004, 1.5596e-005
  62.55900, 13.10724, 3.6374e-004, 1.5297e-005
  63.05900, 13.20002, 3.7123e-004, 1.5402e-005
  63.55900, 13.29284, 3.7898e-004, 1.5187e-005
  64.05900, 13.38573, 3.8687e-004, 1.5848e-005
  64.55900, 13.47850, 3.9461e-004, 1.5239e-005
  65.05900, 13.57154, 4.0214e-004, 1.5857e-005
  65.55900, 13.66465, 4.1023e-004, 1.5612e-005
  66.05900, 13.75768, 4.1789e-004, 1.6033e-005
  66.55900, 13.85085, 4.2599e-004, 1.5846e-005
  67.05900, 13.94397, 4.3399e-004, 1.6304e-005
  67.55900, 14.03722, 4.4209e-004, 1.6204e-005
  68.05900, 14.13042, 4.5010e-004, 1.5596e-005
  68.55900, 14.22372, 4.5792e-004, 1.6210e-005
  69.05900, 14.31715, 4.6629e-004, 1.6627e-005
  69.55900, 14.41059, 4.7445e-004, 1.6323e-005
  70.05900, 14.50408, 4.8264e-004, 1.6569e-005
  70.55900, 14.59781, 4.9107e-004, 1.6508e-005
  71.05900, 14.69128, 4.9923e-004, 1.6946e-005
  71.55900, 14.78468, 5.0795e-004, 1.6670e-005
  72.05900, 14.87817, 5.1624e-004, 1.6910e-005
  72.55900, 14.97168, 5.2456e-004, 1.7434e-005
  73.05900, 15.06533, 5.3340e-004, 1.6572e-005
  73.55900, 15.15908, 5.4153e-004, 1.7483e-005
  74.05900, 15.25295, 5.5030e-004, 1.6698e-005
  74.55900, 15.34665, 5.5893e-004, 1.7424e-005
  75.05900, 15.44052, 5.6762e-004, 1.7140e-005
  75.55900, 15.53461, 5.7612e-004, 1.6983e-005
  76.05900, 15.62872, 5.8441e-004, 1.6912e-005
  76.55900, 15.72286, 5.9318e-004, 1.7563e-005
  77.05900, 15.81685, 6.0179e-004, 1.7157e-005
  77.55900, 15.91105, 6.1035e-004, 1.7554e-005
  78.05900, 16.00526, 6.1965e-004, 1.7910e-005
  78.55900, 16.09972, 6.2839e-004, 1.7325e-005
  79.05900, 16.19426, 6.3665e-004, 1.7415e-005
  79.55900, 16.28884, 6.4588e-004, 1.7983e-005
  80.05900, 16.38344, 6.5429e-004, 1.7060e-005
  80.55900, 16.47804, 6.6340e-004, 1.7928e-005
  81.05900, 16.57268, 6.7191e-004, 1.7791e-005
  81.55900, 16.66716, 6.8109e-004, 1.7942e-005
  82.05900, 16.76166, 6.9003e-004, 1.7458e-005
  82.55900, 16.85632, 6.9869e-004, 1.7706e-005
  83.05900, 16.95108, 7.0751e-004, 1.7682e-005
  83.55900, 17.04601, 7.1628e-004, 1.7713e-005
  84.05900, 17.14152, 7.2539e-004, 1.7664e-005
  84.55900, 17.23708, 7.3409e-004, 1.8223e-005
  85.05900, 17.33288, 7.4323e-004, 1.7891e-005
  85.55900, 17.42883, 7.5205e-004, 1.7988e-005
  86.05900, 17.52493, 7.6125e-004, 1.7778e-005
  86.55900, 17.62134, 7.7011e-004, 1.7980e-005
  87.05900, 17.71772, 7.7905e-004, 1.8004e-005
  87.55900, 17.81404, 7.8813e-004, 1.7960e-005
  88.05900, 17.91025, 7.9713e-004, 1.8219e-005
  88.55900, 18.00660, 8.0648e-004, 1.8845e-005
  89.05900, 18.10327, 8.1567e-004, 1.7730e-005
  89.55900, 18.20004, 8.2444e-004, 1.8227e-005
  90.05900, 18.29681, 8.3350e-004, 1.8065e-005
  90.55900, 18.39367, 8.4256e-004, 1.8335e-005
  91.05900, 18.49056, 8.5200e-004, 1.8510e-005
  91.55900, 18.58745, 8.6083e-004, 1.8047e-005
  92.05900, 18.68470, 8.7000e-004, 1.8361e-005
  92.55900, 18.78199, 8.7951e-004, 1.8413e-005
  93.05900, 18.87929, 8.8872e-004, 1.8462e-005
  93.55900, 18.97668, 8.9792e-004, 1.8466e-005
  94.05900, 19.07422, 9.0717e-004, 1.8543e-005
  94.55900, 19.17193, 9.1617e-004, 1.8139e-005
  95.05900, 19.26990, 9.2557e-004, 1.8507e-005
  95.55900, 19.36776, 9.3465e-004, 1.8724e-005
  96.05900, 19.46557, 9.4376e-004, 1.8348e-005
  96.55900, 19.56348, 9.5288e-004, 1.9072e-005
  97.05900, 19.66137, 9.6246e-004, 1.8247e-005
  97.55900, 19.75941, 9.7180e-004, 1.8540e-005
  98.05900, 19.85760, 9.8124e-004, 1.8928e-005
  98.55900, 19.95553, 9.9060e-004, 1.8244e-005
  99.05900, 20.05357, 9.9964e-004, 1.8487e-005
  99.55900, 20.15199, 1.0089e-003, 1.9027e-005
 100.05900, 20.25063, 1.0183e-003, 1.9306e-005
 100.55900, 20.34955, 1.0289e-003, 1.9377e-005
 101.05900, 20.44844, 1.0375e-003, 1.7638e-005
 101.55900, 20.54726, 1.0463e-003, 1.8204e-005
 102.05900, 20.64618, 1.0556e-003, 1.9610e-005
 102.55900, 20.74511, 1.0654e-003, 1.8402e-005
 103.05900, 20.84382, 1.0746e-003, 1.8340e-005
 103.55900, 20.94262, 1.0839e-003, 1.8919e-005
 104.05900, 21.04159, 1.0934e-003, 1.8785e-005
 104.55900, 21.14053, 1.1028e-003, 1.8651e-005
 105.05900, 21.23976, 1.1121e-003, 1.8632e-005
 105.55900, 21.33926, 1.1217e-003, 1.8969e-005
 106.05900, 21.43914, 1.1310e-003, 1.8931e-005
 106.55900, 21.53931, 1.1401e-003, 1.8319e-005
 107.05900, 21.63957, 1.1495e-003, 1.8962e-005
 107.55900, 21.73968, 1.1592e-003, 1.9082e-005
 108.05900, 21.83990, 1.1688e-003, 1.9056e-005
 108.55900, 21.94024, 1.1780e-003, 1.8976e-005
 109.05900, 22.04065, 1.1877e-003, 1.8927e-005
 109.55900, 22.14092, 1.1968e-003, 1.8879e-005
 110.05900, 22.24122, 1.2067e-003, 1.9071e-005
 110.55900, 22.34168, 1.2159e-003, 1.9055e-005
 111.05900, 22.44215, 1.2256e-003, 1.8529e-005
 111.55900, 22.54296, 1.2350e-003, 1.8616e-005
 112.05900, 22.64352, 1.2440e-003, 1.9574e-005
 112.55900, 22.74414, 1.2537e-003, 1.8548e-005
 113.05900, 22.84485, 1.2628e-003, 1.8803e-005
 113.55900, 22.94575, 1.2726e-003, 1.9556e-005
 114.05900, 23.04664, 1.2823e-003, 1.8665e-005
 114.55900, 23.14756, 1.2915e-003, 1.8838e-005
 115.05900, 23.24853, 1.3014e-003, 1.8886e-005
 115.55900, 23.34958, 1.3105e-003, 1.9073e-005
 116.05900, 23.45080, 1.3203e-003, 1.9107e-005
 116.55900, 23.55207, 1.3299e-003, 1.9685e-005
 117.05900, 23.65333, 1.3392e-003, 1.8738e-005
 117.55900, 23.75477, 1.3491e-003, 1.9308e-005
 118.05900, 23.85640, 1.3586e-003, 1.8894e-005
 118.55900, 23.95797, 1.3680e-003, 1.8861e-005
 119.05900, 24.05983, 1.3776e-003, 1.8817e-005
 119.55900, 24.16182, 1.3868e-003, 1.9314e-005
 120.05900, 24.26406, 1.3961e-003, 1.8787e-005
 120.55900, 24.36634, 1.4060e-003, 1.9361e-005
 121.05900, 24.46851, 1.4154e-003, 1.9354e-005
 121.55900, 24.57064, 1.4251e-003, 1.9318e-005
 122.05900, 24.67289, 1.4352e-003, 1.9387e-005
 122.55900, 24.77499, 1.4445e-003, 1.9172e-005
 123.05900, 24.87693, 1.4542e-003, 1.9150e-005
 123.55900, 24.97896, 1.4639e-003, 1.9075e-005
 124.05900, 25.08104, 1.4732e-003, 1.9011e-005
 124.55900, 25.18328, 1.4830e-003, 1.8818e-005
 125.05900, 25.28556, 1.4921e-003, 1.9396e-005
 125.55900, 25.38789, 1.5020e-003, 1.8904e-005
 126.05900, 25.49048, 1.5114e-003, 1.9368e-005
 126.55900, 25.59333, 1.5213e-003, 1.9503e-005
 127.05900, 25.69626, 1.5312e-003, 1.9298e-005
 127.55900, 25.79937, 1.5405e-003, 1.8688e-005
 128.05900, 25.90246, 1.5498e-003, 1.8991e-005
 128.55900, 26.00563, 1.5594e-003, 1.9503e-005
 129.05900, 26.10900, 1.5692e-003, 1.9475e-005
 129.55900, 26.21243, 1.5789e-003, 1.9301e-005
 130.05900, 26.31589, 1.5888e-003, 1.8828e-005
 130.55900, 26.41927, 1.5978e-003, 1.9559e-005
 131.05900, 26.52276, 1.6076e-003, 1.9166e-005
 131.55900, 26.62630, 1.6176e-003, 1.9358e-005
 132.05900, 26.72974, 1.6266e-003, 1.9539e-005
 132.55900, 26.83311, 1.6365e-003, 1.9369e-005
 133.05900, 26.93658, 1.6461e-003, 1.9007e-005
 133.55900, 27.04008, 1.6555e-003, 1.9041e-005
 134.05900, 27.14374, 1.6656e-003, 1.9048e-005
 134.55900, 27.24730, 1.6747e-003, 1.9255e-005
 135.05900, 27.35103, 1.6845e-003, 1.9575e-005
 135.55900, 27.45521, 1.6944e-003, 1.9625e-005
 136.05900, 27.55937, 1.7042e-003, 1.9563e-005
 136.55900, 27.66365, 1.7137e-003, 1.8991e-005
 137.05900, 27.76778, 1.7234e-003, 1.9339e-005
 137.55900, 27.87188, 1.7330e-003, 1.9481e-005
 138.05900, 27.97629, 1.7427e-003, 1.9111e-005
 138.55900, 28.08071, 1.7525e-003, 1.9418e-005
 139.05900, 28.18486, 1.7620e-003, 1.9232e-005
 139.55900, 28.28910, 1.7715e-003, 1.9421e-005
 140.05900, 28.39317, 1.7814e-003, 1.9331e-005
 140.55900, 28.49723, 1.7911e-003, 1.9671e-005
 141.05900, 28.60151, 1.8007e-003, 1.9477e-005
 141.55900, 28.70569, 1.8106e-003, 1.9295e-005
 142.05900, 28.81008, 1.8200e-003, 1.8781e-005
 142.55900, 28.91475, 1.8296e-003, 1.9430e-005
 143.05900, 29.01952, 1.8389e-003, 1.9287e-005
 143.55900, 29.12450, 1.8487e-003, 1.8844e-005
 144.05900, 29.22965, 1.8583e-003, 1.9316e-005
 144.55900, 29.33467, 1.8680e-003, 2.0140e-005
 145.05900, 29.43940, 1.8779e-003, 1.9113e-005
 145.55900, 29.54384, 1.8874e-003, 1.9235e-005
 146.05900, 29.64800, 1.8971e-003, 1.9279e-005
 146.55900, 29.75216, 1.9067e-003, 1.9485e-005
 147.05900, 29.85651, 1.9171e-003, 1.9483e-005
 147.55900, 29.96110, 1.9264e-003, 1.8727e-005
 148.05900, 30.06576, 1.9358e-003, 1.9508e-005
 148.55900, 30.17091, 1.9456e-003, 1.9257e-005
 149.05900, 30.27627, 1.9549e-003, 1.9792e-005
 149.55900, 30.38196, 1.9648e-003, 1.9077e-005
 150.05900, 30.48746, 1.9746e-003, 1.9219e-005
 150.55900, 30.59299, 1.9842e-003, 1.9749e-005
 151.05900, 30.69866, 1.9937e-003, 1.9076e-005
 151.55900, 30.80437, 2.0034e-003, 1.9327e-005
 152.05900, 30.91020, 2.0129e-003, 1.9340e-005
 152.55900, 31.01625, 2.0227e-003, 1.9485e-005
 153.05900, 31.12227, 2.0325e-003, 1.9460e-005
 153.55900, 31.22866, 2.0425e-003, 1.9994e-005
 154.05900, 31.33511, 2.0521e-003, 1.9365e-005
 154.55900, 31.44152, 2.0618e-003, 1.9023e-005
 155.05900, 31.54799, 2.0717e-003, 1.9601e-005
 155.55900, 31.65436, 2.0815e-003, 1.9035e-005
 156.05900, 31.76089, 2.0908e-003, 1.9195e-005
 156.55900, 31.86746, 2.1007e-003, 1.9512e-005
 157.05900, 31.97410, 2.1103e-003, 1.9600e-005
 157.55900, 32.08091, 2.1204e-003, 1.9912e-005
 158.05900, 32.18783, 2.1300e-003, 1.9167e-005
 158.55900, 32.29454, 2.1399e-003, 1.9545e-005
 159.05900, 32.40105, 2.1493e-003, 1.9425e-005
 159.55900, 32.50765, 2.1590e-003, 1.9801e-005
 160.05900, 32.61437, 2.1689e-003, 1.9230e-005
 160.55900, 32.72095, 2.1786e-003, 1.9325e-005
 161.05900, 32.82753, 2.1883e-003, 1.9541e-005
 161.55900, 32.93434, 2.1983e-003, 1.9825e-005
 162.05900, 33.04156, 2.2076e-003, 1.9271e-005
 162.55900, 33.14886, 2.2177e-003, 1.9696e-005
 163.05900, 33.25597, 2.2274e-003, 1.9661e-005
 163.55900, 33.36331, 2.2374e-003, 1.9734e-005
 164.05900, 33.47072, 2.2472e-003, 1.9543e-005
 164.55900, 33.57807, 2.2570e-003, 1.9344e-005
 165.05900, 33.68533, 2.2662e-003, 1.8976e-005
 165.55900, 33.79266, 2.2763e-003, 1.9814e-005
 166.05900, 33.89992, 2.2859e-003, 1.9716e-005
 166.55900, 34.00738, 2.2961e-003, 1.9925e-005
 167.05900, 34.11470, 2.3055e-003, 1.8850e-005
 167.55900, 34.22211, 2.3153e-003, 1.9910e-005
 168.05900, 34.32982, 2.3253e-003, 1.9673e-005
 168.55900, 34.43751, 2.3353e-003, 1.9646e-005
 169.05900, 34.54539, 2.3448e-003, 1.9324e-005
 169.55900, 34.65358, 2.3546e-003, 2.0045e-005
 170.05900, 34.76190, 2.3643e-003, 1.9112e-005
 170.55900, 34.87032, 2.3744e-003, 1.9393e-005
 171.05900, 34.97881, 2.3838e-003, 1.9517e-005
 171.55900, 35.08726, 2.3934e-003, 1.9796e-005
 172.05900, 35.19583, 2.4033e-003, 1.9830e-005
 172.55900, 35.30448, 2.4135e-003, 1.9896e-005
 173.05900, 35.41305, 2.4236e-003, 1.9895e-005
 173.55900, 35.52163, 2.4334e-003, 1.9660e-005
 174.05900, 35.63031, 2.4429e-003, 1.9335e-005
 174.55900, 35.73913, 2.4529e-003, 1.9555e-005
 175.05900, 35.84816, 2.4625e-003, 1.9352e-005
 175.55900, 35.95721, 2.4724e-003, 1.9777e-005
 176.05900, 36.06652, 2.4822e-003, 1.9411e-005
 176.55900, 36.17599, 2.4923e-003, 1.9992e-005
 177.05900, 36.28551, 2.5020e-003, 1.9711e-005
 177.55900, 36.39515, 2.5118e-003, 2.0309e-005
 178.05900, 36.50477, 2.5216e-003, 1.9438e-005
 178.55900, 36.61466, 2.5315e-003, 1.9075e-005
 179.05900, 36.72459, 2.5415e-003, 2.0421e-005
 179.55900, 36.83433, 2.5515e-003, 1.9516e-005
 180.05900, 36.94397, 2.5609e-003, 1.9939e-005
 180.55900, 37.05388, 2.5711e-003, 1.9766e-005
 181.05900, 37.16371, 2.5808e-003, 1.9467e-005
 181.55900, 37.27364, 2.5907e-003, 1.9734e-005
 182.05900, 37.38328, 2.6002e-003, 1.9846e-005
 182.55900, 37.49285, 2.6102e-003, 1.9588e-005
 183.05900, 37.60258, 2.6203e-003, 2.0413e-005
 183.55900, 37.71255, 2.6303e-003, 1.9677e-005
 184.05900, 37.82229, 2.6400e-003, 1.9362e-005
 184.55900, 37.93216, 2.6500e-003, 1.9612e-005
 185.05900, 38.04218, 2.6596e-003, 1.9562e-005
 185.55900, 38.15231, 2.6695e-003, 1.9900e-005
 186.05900, 38.26266, 2.6794e-003, 1.9309e-005
 186.55900, 38.37305, 2.6888e-003, 1.9536e-005
 187.05900, 38.48324, 2.6991e-003, 2.0123e-005
 187.55900, 38.59339, 2.7091e-003, 1.9937e-005
 188.05900, 38.70362, 2.7190e-003, 2.0348e-005
 188.55900, 38.81409, 2.7290e-003, 1.9161e-005
 189.05900, 38.92460, 2.7387e-003, 1.9451e-005
 189.55900, 39.03502, 2.7484e-003, 1.9668e-005
 190.05900, 39.14562, 2.7582e-003, 2.0024e-005
 190.55900, 39.25667, 2.7683e-003, 1.9733e-005
 191.05900, 39.36775, 2.7781e-003, 1.9712e-005
 191.55900, 39.47884, 2.7880e-003, 1.9701e-005
 192.05900, 39.58970, 2.7977e-003, 1.9413e-005
 192.55900, 39.70085, 2.8076e-003, 1.9664e-005
 193.05900, 39.81211, 2.8175e-003, 2.0403e-005
 193.55900, 39.92318, 2.8274e-003, 1.9486e-005
 194.05900, 40.03422, 2.8371e-003, 1.9199e-005
 194.55900, 40.14538, 2.8473e-003, 1.9992e-005
 195.05900, 40.25667, 2.8571e-003, 1.9805e-005
 195.55900, 40.36802, 2.8671e-003, 1.9911e-005
 196.05900, 40.47957, 2.8772e-003, 1.9643e-005
 196.55900, 40.59131, 2.8869e-003, 2.0055e-005
 197.05900, 40.70288, 2.8967e-003, 1.9977e-005
 197.55900, 40.81465, 2.9066e-003, 1.9336e-005
 198.05900, 40.92655, 2.9164e-003, 2.0213e-005
 198.55900, 41.03855, 2.9265e-003, 1.9913e-005
 199.05900, 41.15083, 2.9365e-003, 1.9457e-005
 199.55900, 41.26309, 2.9460e-003, 1.9232e-005
 200.05900, 41.37519, 2.9559e-003, 2.0074e-005
 200.55900, 41.48747, 2.9659e-003, 2.0164e-005
 201.05900, 41.59990, 2.9758e-003, 1.9955e-005
 201.55900, 41.71234, 2.9861e-003, 1.9869e-005
 202.05900, 41.82476, 2.9960e-003, 1.9961e-005
 202.55900, 41.93705, 3.0057e-003, 1.9694e-005
 203.05900, 42.04950, 3.0156e-003, 1.9935e-005
 203.55900, 42.16226, 3.0256e-003, 1.9866e-005
 204.05900, 42.27494, 3.0359e-003, 1.9345e-005
 204.55900, 42.38774, 3.0451e-003, 1.9432e-005
 205.05900, 42.50065, 3.0553e-003, 2.0215e-005
 205.55900, 42.61346, 3.0651e-003, 1.9968e-005
 206.05900, 42.72643, 3.0751e-003, 1.9473e-005
 206.55900, 42.83947, 3.0849e-003, 2.0329e-005
 207.05900, 42.95256, 3.0948e-003, 1.9586e-005
 207.55900, 43.06584, 3.1050e-003, 1.9620e-005
 208.05900, 43.17910, 3.1144e-003, 1.9412e-005
 208.55900, 43.29246, 3.1246e-003, 2.0304e-005
 209.05900, 43.40592, 3.1347e-003, 2.0073e-005
 209.55900, 43.51941, 3.1444e-003, 1.9697e-005
 210.05900, 43.63300, 3.1543e-003, 1.9459e-005
 210.55900, 43.74664, 3.1642e-003, 1.9745e-005
 211.05900, 43.86038, 3.1743e-003, 1.9536e-005
 211.55900, 43.97420, 3.1840e-003, 2.0045e-005
 212.05900, 44.08832, 3.1937e-003, 1.9466e-005
 212.55900, 44.20240, 3.2038e-003, 2.0303e-005
 213.05900, 44.31693, 3.2139e-003, 1.9653e-005
 213.55900, 44.43136, 3.2236e-003, 1.9736e-005
 214.05900, 44.54602, 3.2335e-003, 2.0527e-005
 214.55900, 44.66083, 3.2435e-003, 1.9560e-005
 215.05900, 44.77554, 3.2538e-003, 1.9796e-005
 215.55900, 44.89035, 3.2637e-003, 2.0345e-005
 216.05900, 45.00475, 3.2735e-003, 1.9427e-005
 216.55900, 45.11949, 3.2836e-003, 1.9958e-005
 217.05900, 45.23414, 3.2937e-003, 1.9956e-005
 217.55900, 45.34902, 3.3032e-003, 1.9763e-005
 218.05900, 45.46378, 3.3134e-003, 2.0040e-005
 218.55900, 45.57862, 3.3233e-003, 1.9952e-005
 219.05900, 45.69370, 3.3331e-003, 1.9893e-005
 219.55900, 45.80874, 3.3432e-003, 1.9945e-005
 220.05900, 45.92378, 3.3531e-003, 2.0018e-005
 220.55900, 46.03871, 3.3635e-003, 1.9665e-005
 221.05900, 46.15396, 3.3733e-003, 1.9900e-005
 221.55900, 46.26940, 3.3830e-003, 2.0014e-005
 222.05900, 46.38503, 3.3931e-003, 2.0022e-005
 222.55900, 46.50075, 3.4033e-003, 1.9899e-005
 223.05900, 46.61639, 3.4132e-003, 1.9808e-005
 223.55900, 46.73219, 3.4232e-003, 2.0460e-005
 224.05900, 46.84801, 3.4330e-003, 1.9407e-005
 224.55900, 46.96377, 3.4431e-003, 2.0268e-005
 225.05900, 47.07942, 3.4529e-003, 1.9882e-005
 225.55900, 47.19522, 3.4627e-003, 1.9585e-005
 226.05900, 47.31120, 3.4730e-003, 2.0297e-005
 226.55900, 47.42706, 3.4831e-003, 2.0380e-005
 227.05900, 47.54306, 3.4929e-003, 1.9429e-005
 227.55900, 47.65935, 3.5032e-003, 2.0079e-005
 228.05900, 47.77597, 3.5128e-003, 1.9483e-005
 228.55900, 47.89243, 3.5226e-003, 2.0301e-005
 229.05900, 48.00888, 3.5331e-003, 2.0111e-005
 229.55900, 48.12571, 3.5428e-003, 1.9275e-005
 230.05900, 48.24271, 3.5528e-003, 2.0509e-005
 230.55900, 48.35965, 3.5628e-003, 1.9977e-005
 231.05900, 48.47666, 3.5725e-003, 1.9952e-005
 231.55900, 48.59380, 3.5828e-003, 1.9986e-005
 232.05900, 48.71118, 3.5925e-003, 1.9971e-005
 232.55900, 48.82814, 3.6029e-003, 2.0222e-005
 233.05900, 48.94482, 3.6128e-003, 1.9723e-005
 233.55900, 49.06143, 3.6225e-003, 1.9670e-005
 234.05900, 49.17804, 3.6328e-003, 1.9746e-005
 234.55900, 49.29490, 3.6426e-003, 1.9989e-005
 235.05900, 49.41192, 3.6526e-003, 1.9941e-005
 235.55900, 49.52914, 3.6625e-003, 2.0099e-005
 236.05900, 49.64682, 3.6727e-003, 1.9995e-005
 236.55900, 49.76480, 3.6824e-003, 2.0060e-005
 237.05900, 49.88285, 3.6925e-003, 1.9991e-005
 237.55900, 50.00098, 3.7023e-003, 1.9814e-005
 238.05900, 50.11915, 3.7130e-003, 2.0413e-005
 238.55900, 50.23758, 3.7225e-003, 1.9774e-005
 239.05900, 50.35602, 3.7323e-003, 1.9961e-005
 239.55900, 50.47470, 3.7426e-003, 2.0062e-005
 240.05900, 50.59350, 3.7527e-003, 1.9985e-005
 240.55900, 50.71238, 3.7629e-003, 2.0393e-005
 241.05900, 50.83085, 3.7729e-003, 1.9962e-005
 241.55900, 50.94924, 3.7825e-003, 2.0323e-005
 242.05900, 51.06784, 3.7932e-003, 1.9782e-005
 242.55900, 51.18616, 3.8032e-003, 2.0491e-005
 243.05900, 51.30445, 3.8128e-003, 1.9796e-005
 243.55900, 51.42275, 3.8233e-003, 2.0240e-005
 244.05900, 51.54130, 3.8329e-003, 1.9476e-005
 244.55900, 51.65994, 3.8428e-003, 2.0337e-005
 245.05900, 51.77860, 3.8530e-003, 2.0132e-005
 245.55900, 51.89731, 3.8631e-003, 2.0036e-005
 246.05900, 52.01625, 3.8731e-003, 1.9569e-005
 246.55900, 52.13515, 3.8830e-003, 1.9900e-005
 247.05900, 52.25431, 3.8928e-003, 2.0399e-005
 247.55900, 52.37354, 3.9033e-003, 1.9824e-005
 248.05900, 52.49285, 3.9126e-003, 2.0065e-005
 248.55900, 52.61226, 3.9233e-003, 2.0019e-005
 249.05900, 52.73160, 3.9330e-003, 1.9947e-005
 249.55900, 52.85124, 3.9432e-003, 2.0220e-005
 250.05900, 52.97115, 3.9534e-003, 1.9971e-005
 250.55900, 53.09141, 3.9636e-003, 2.0293e-005
 251.05900, 53.21157, 3.9734e-003, 2.0103e-005
 251.55900, 53.33195, 3.9835e-003, 2.0157e-005
 252.05900, 53.45251, 3.9936e-003, 2.0388e-005
 252.55900, 53.57300, 4.0035e-003, 1.9900e-005
 253.05900, 53.69331, 4.0137e-003, 1.9810e-005
 253.55900, 53.81323, 4.0239e-003, 2.0738e-005
 254.05900, 53.93333, 4.0337e-003, 1.9607e-005
 254.55900, 54.05354, 4.0438e-003, 2.0004e-005
 255.05900, 54.17381, 4.0539e-003, 1.9688e-005
 255.55900, 54.29427, 4.0637e-003, 2.0375e-005
 256.05900, 54.41497, 4.0736e-003, 1.9884e-005
 256.55900, 54.53594, 4.0834e-003, 2.0448e-005
 257.05900, 54.65692, 4.0938e-003, 2.0176e-005
 257.55900, 54.77782, 4.1039e-003, 1.9634e-005
 258.05900, 54.89903, 4.1136e-003, 1.9970e-005
 258.55900, 55.02034, 4.1239e-003, 2.0792e-005
 259.05900, 55.14150, 4.1339e-003, 1.9977e-005
 259.55900, 55.26287, 4.1438e-003, 1.9735e-005
 260.05900, 55.38407, 4.1542e-003, 2.0270e-005
 260.55900, 55.50532, 4.1639e-003, 2.0406e-005
 261.05900, 55.62669, 4.1743e-003, 2.0174e-005
 261.55900, 55.74802, 4.1843e-003, 1.9914e-005
 262.05900, 55.86957, 4.1944e-003, 2.0318e-005
 262.55900, 55.99105, 4.2046e-003, 2.0042e-005
 263.05900, 56.11298, 4.2146e-003, 2.0173e-005
 263.55900, 56.23490, 4.2249e-003, 2.0454e-005
 264.05900, 56.35648, 4.2347e-003, 1.9792e-005
 264.55900, 56.47831, 4.2449e-003, 2.0825e-005
 265.05900, 56.60021, 4.2548e-003, 1.9503e-005
 265.55900, 56.72239, 4.2647e-003, 2.0072e-005
 266.05900, 56.84435, 4.2753e-003, 2.0221e-005
 266.55900, 56.96672, 4.2850e-003, 2.0350e-005
 267.05900, 57.08913, 4.2954e-003, 2.0435e-005
 267.55900, 57.21130, 4.3054e-003, 1.9975e-005
 268.05900, 57.33366, 4.3150e-003, 2.0133e-005
 268.55900, 57.45588, 4.3256e-003, 1.9994e-005
 269.05900, 57.57823, 4.3355e-003, 1.9791e-005
 269.55900, 57.70051, 4.3454e-003, 2.0347e-005
 270.05900, 57.82319, 4.3558e-003, 2.0238e-005
 270.55900, 57.94605, 4.3655e-003, 1.9937e-005
 271.05900, 58.06886, 4.3756e-003, 2.0188e-005
 271.55900, 58.19199, 4.3858e-003, 1.9915e-005
 272.05900, 58.31527, 4.3958e-003, 2.0224e-005
 272.55900, 58.43852, 4.4064e-003, 2.0155e-005
 273.05900, 58.56217, 4.4156e-003, 2.0030e-005
 273.55900, 58.68582, 4.4261e-003, 2.0432e-005
 274.05900, 58.80965, 4.4363e-003, 2.0591e-005
 274.55900, 58.93345, 4.4463e-003, 1.9794e-005
 275.05900, 59.05753, 4.4566e-003, 2.0348e-005
 275.55900, 59.18174, 4.4667e-003, 2.0271e-005
 276.05900, 59.30602, 4.4769e-003, 2.0127e-005
 276.55900, 59.43049, 4.4873e-003, 2.0737e-005
 277.05900, 59.55491, 4.4973e-003, 1.9914e-005
 277.55900, 59.67931, 4.5072e-003, 2.0300e-005
 278.05900, 59.80404, 4.5174e-003, 2.0291e-005
 278.55900, 59.92890, 4.5274e-003, 1.9850e-005
 279.05900, 60.05334, 4.5374e-003, 2.0424e-005
 279.55900, 60.17820, 4.5474e-003, 1.9984e-005
 280.05900, 60.30305, 4.5576e-003, 2.0524e-005
 280.55900, 60.42803, 4.5681e-003, 2.0785e-005
 281.05900, 60.55301, 4.5782e-003, 2.0123e-005
 281.55900, 60.67764, 4.5882e-003, 2.0147e-005
 282.05900, 60.80253, 4.5985e-003, 2.0311e-005
 282.55900, 60.92728, 4.6085e-003, 2.0351e-005
 283.05900, 61.05238, 4.6185e-003, 2.0236e-005
 283.55900, 61.17772, 4.6287e-003, 1.9641e-005
 284.05900, 61.30282, 4.6387e-003, 2.0365e-005
 284.55900, 61.42826, 4.6486e-003, 2.0249e-005
 285.05900, 61.55391, 4.6589e-003, 2.0152e-005
 285.55900, 61.67973, 4.6690e-003, 1.9906e-005
 286.05900, 61.80539, 4.6789e-003, 2.0428e-005
 286.55900, 61.93107, 4.6889e-003, 2.0108e-005
 287.05900, 62.05674, 4.6990e-003, 2.0049e-005
 287.55900, 62.18262, 4.7091e-003, 2.0624e-005
 288.05900, 62.30825, 4.7194e-003, 1.9785e-005
 288.55900, 62.43389, 4.7290e-003, 1.9973e-005
 289.05900, 62.55963, 4.7390e-003, 2.0302e-005
 289.55900, 62.68542, 4.7492e-003, 2.0641e-005
 290.05900, 62.81150, 4.7597e-003, 1.9379e-005
 290.55900, 62.93705, 4.7694e-003, 2.0468e-005
 291.05900, 63.06313, 4.7798e-003, 2.0532e-005
 291.55900, 63.18947, 4.7900e-003, 1.9855e-005
 292.05900, 63.31588, 4.8001e-003, 2.0146e-005
 292.55900, 63.44252, 4.8100e-003, 1.9880e-005
 293.05900, 63.56931, 4.8198e-003, 2.0383e-005
 293.55900, 63.69643, 4.8300e-003, 2.0465e-005
 294.05900, 63.82365, 4.8407e-003, 2.0524e-005
 294.55900, 63.95086, 4.8506e-003, 2.0430e-005
 295.05900, 64.07808, 4.8606e-003, 2.0150e-005
 295.55900, 64.20544, 4.8711e-003, 2.0309e-005
 296.05900, 64.33295, 4.8809e-003, 2.0449e-005
 296.55900, 64.46061, 4.8912e-003, 2.0540e-005
 297.05900, 64.58836, 4.9015e-003, 2.0587e-005
 297.55900, 64.71641, 4.9116e-003, 1.9593e-005
 298.05900, 64.84459, 4.9215e-003, 2.0327e-005
 298.55900, 64.97307, 4.9314e-003, 2.0526e-005
 299.05900, 65.10158, 4.9415e-003, 1.9856e-005
 299.55900, 65.22971, 4.9522e-003, 2.1312e-005
 300.05900, 65.35787, 4.9622e-003, 2.0532e-005
 300.55900, 65.48593, 4.9724e-003, 2.0382e-005
 301.05900, 65.61397, 4.9826e-003, 1.9872e-005
 301.55900, 65.74195, 4.9926e-003, 1.9999e-005
 302.05900, 65.87012, 5.0029e-003, 2.0458e-005
 302.55900, 65.99851, 5.0130e-003, 2.0742e-005
 303.05900, 66.12688, 5.0231e-003, 2.0530e-005
 303.55900, 66.25511, 5.0335e-003, 1.9663e-005
 304.05900, 66.38343, 5.0432e-003, 2.0619e-005
 304.55900, 66.51212, 5.0534e-003, 2.0277e-005
 305.05900, 66.64067, 5.0638e-003, 1.9794e-005
 305.55900, 66.76934, 5.0736e-003, 2.0378e-005
 306.05900, 66.89805, 5.0836e-003, 2.0761e-005
 306.55900, 67.02692, 5.0940e-003, 2.0248e-005
 307.05900, 67.15583, 5.1043e-003, 2.0120e-005
 307.55900, 67.28455, 5.1143e-003, 2.0239e-005
 308.05900, 67.41387, 5.1245e-003, 2.0632e-005
 308.55900, 67.54313, 5.1347e-003, 2.0103e-005
 309.05900, 67.67246, 5.1449e-003, 2.0486e-005
 309.55900, 67.80207, 5.1549e-003, 2.0510e-005
 310.05900, 67.93192, 5.1653e-003, 2.0068e-005
 310.55900, 68.06170, 5.1752e-003, 2.0395e-005
 311.05900, 68.19136, 5.1854e-003, 2.0509e-005
 311.55900, 68.32164, 5.1957e-003, 1.9691e-005
 312.05900, 68.45206, 5.2057e-003, 2.0410e-005
 312.55900, 68.58245, 5.2157e-003, 2.0432e-005
 313.05900, 68.71279, 5.2256e-003, 1.9813e-005
 313.55900, 68.84333, 5.2359e-003, 2.0986e-005
 314.05900, 68.97356, 5.2465e-003, 2.0396e-005
 314.55900, 69.10350, 5.2564e-003, 2.0569e-005
 315.05900, 69.23348, 5.2667e-003, 1.9607e-005
 315.55900, 69.36386, 5.2770e-003, 2.0576e-005
 316.05900, 69.49439, 5.2873e-003, 2.0364e-005
 316.55900, 69.62509, 5.2972e-003, 2.0234e-005
 317.05900, 69.75616, 5.3071e-003, 2.0779e-005
 317.55900, 69.88724, 5.3172e-003, 2.0181e-005
 318.05900, 70.01795, 5.3278e-003, 2.0318e-005
 318.55900, 70.14871, 5.3378e-003, 2.0292e-005
 319.05900, 70.27933, 5.3482e-003, 2.0823e-005
 319.55900, 70.40970, 5.3583e-003, 1.9977e-005
 320.05900, 70.54044, 5.3684e-003, 2.0181e-005
 320.55900, 70.67153, 5.3784e-003, 2.0355e-005
 321.05900, 70.80289, 5.3886e-003, 2.0119e-005
 321.55900, 70.93480, 5.3990e-003, 2.0620e-005
 322.05900, 71.06687, 5.4087e-003, 2.0173e-005
 322.55900, 71.19897, 5.4190e-003, 2.0368e-005
 323.05900, 71.33121, 5.4290e-003, 2.0395e-005
 323.55900, 71.46341, 5.4394e-003, 2.0598e-005
 324.05900, 71.59552, 5.4495e-003, 2.0121e-005
 324.55900, 71.72759, 5.4601e-003, 2.0613e-005
 325.05900, 71.85972, 5.4701e-003, 2.0649e-005
 325.55900, 71.99197, 5.4804e-003, 2.0627e-005
 326.05900, 72.12414, 5.4908e-003, 2.0698e-005
 326.55900, 72.25621, 5.5010e-003, 2.0469e-005
 327.05900, 72.38864, 5.5111e-003, 2.0082e-005
 327.55900, 72.52133, 5.5213e-003, 2.0195e-005
 328.05900, 72.65446, 5.5314e-003, 2.0643e-005
 328.55900, 72.78779, 5.5414e-003, 2.0493e-005
 329.05900, 72.92147, 5.5519e-003, 2.0008e-005
 329.55900, 73.05519, 5.5617e-003, 1.9985e-005
 330.05900, 73.18892, 5.5723e-003, 2.0634e-005
 330.55900, 73.32268, 5.5824e-003, 2.0471e-005
 331.05900, 73.45616, 5.5926e-003, 2.0038e-005
 331.55900, 73.58952, 5.6028e-003, 2.0631e-005
 332.05900, 73.72283, 5.6132e-003, 2.0648e-005
 332.55900, 73.85603, 5.6233e-003, 2.0430e-005
 333.05900, 73.98957, 5.6338e-003, 2.0284e-005
 333.55900, 74.12317, 5.6436e-003, 2.0352e-005
 334.05900, 74.25689, 5.6537e-003, 2.0427e-005
 334.55900, 74.39085, 5.6639e-003, 2.0313e-005
 335.05900, 74.52485, 5.6746e-003, 2.0965e-005
 335.55900, 74.65876, 5.6845e-003, 2.0445e-005
 336.05900, 74.79320, 5.6947e-003, 2.0618e-005
 336.55900, 74.92766, 5.7051e-003, 2.0203e-005
 337.05900, 75.06236, 5.7153e-003, 2.0220e-005
 337.55900, 75.19723, 5.7252e-003, 2.0683e-005
 338.05900, 75.33230, 5.7354e-003, 2.0864e-005
 338.55900, 75.46688, 5.7461e-003, 1.9985e-005
 339.05900, 75.60159, 5.7561e-003, 2.0424e-005
 339.55900, 75.73598, 5.7663e-003, 2.0954e-005
 340.05900, 75.87030, 5.7764e-003, 1.9856e-005
 340.55900, 76.00455, 5.7867e-003, 2.1084e-005
 341.05900, 76.13905, 5.7971e-003, 1.9876e-005
 341.55900, 76.27356, 5.8073e-003, 2.0461e-005
 342.05900, 76.40814, 5.8174e-003, 2.0952e-005
 342.55900, 76.54309, 5.8275e-003, 2.0435e-005
 343.05900, 76.67860, 5.8382e-003, 2.0707e-005
 343.55900, 76.81422, 5.8484e-003, 2.0258e-005
 344.05900, 76.94994, 5.8582e-003, 1.9866e-005
 344.55900, 77.08589, 5.8685e-003, 2.0457e-005
 345.05900, 77.22224, 5.8788e-003, 1.9906e-005
 345.55900, 77.35818, 5.8889e-003, 2.1393e-005
 346.05900, 77.49390, 5.8992e-003, 2.0314e-005
 346.55900, 77.62976, 5.9094e-003, 2.0187e-005
 347.05900, 77.76580, 5.9194e-003, 2.0499e-005
 347.55900, 77.90162, 5.9297e-003, 2.0482e-005
 348.05900, 78.03732, 5.9401e-003, 2.0504e-005
 348.55900, 78.17326, 5.9503e-003, 2.0307e-005
 349.05900, 78.30908, 5.9608e-003, 2.0634e-005
 349.55900, 78.44509, 5.9707e-003, 2.0389e-005
 350.05900, 78.58143, 5.9811e-003, 2.0586e-005
 350.55900, 78.71810, 5.9910e-003, 2.1066e-005
 351.05900, 78.85469, 6.0024e-003, 2.1392e-005
 351.55900, 78.99159, 6.0124e-003, 2.1064e-005
 352.05900, 79.12835, 6.0231e-003, 2.0747e-005
 352.55900, 79.26504, 6.0339e-003, 2.0631e-005
 353.05900, 79.40177, 6.0442e-003, 2.0752e-005
 353.55900, 79.53903, 6.0548e-003, 2.1361e-005
 354.05900, 79.67675, 6.0651e-003, 2.1400e-005
 354.55900, 79.81502, 6.0756e-003, 2.1150e-005
 355.05900, 79.95352, 6.0865e-003, 2.0737e-005
 355.55900, 80.09234, 6.0970e-003, 2.0949e-005
 356.05900, 80.23153, 6.1080e-003, 2.2019e-005
 356.55900, 80.37062, 6.1188e-003, 2.1523e-005
 357.05900, 80.50983, 6.1294e-003, 2.1176e-005
 357.55900, 80.64942, 6.1405e-003, 2.2316e-005
 358.05900, 80.78949, 6.1513e-003, 2.1491e-005
 358.55900, 80.92977, 6.1621e-003, 2.1354e-005
 359.05900, 81.07042, 6.1726e-003, 2.2140e-005
 359.55900, 81.21131, 6.1835e-003, 2.1074e-005
 360.05900, 81.35238, 6.1942e-003, 2.1335e-005
 360.55900, 81.49341, 6.2048e-003, 2.1503e-005
 361.05900, 81.63423, 6.2153e-003, 2.1439e-005
 361.55900, 81.77518, 6.2259e-003, 2.1330e-005
 362.05900, 81.91585, 6.2363e-003, 2.1056e-005
 362.55900, 82.05614, 6.2466e-003, 2.0966e-005
 363.05900, 82.19597, 6.2571e-003, 2.0479e-005
 363.55900, 82.33559, 6.2674e-003, 2.0252e-005
 364.05900, 82.47465, 6.2776e-003, 2.0482e-005
 364.55900, 82.61342, 6.2875e-003, 2.0168e-005
 365.05900, 82.75177, 6.2973e-003, 1.9649e-005
 365.55900, 82.88970, 6.3074e-003, 2.0146e-005
 366.05900, 83.02693, 6.3175e-003, 1.9857e-005
 366.55900, 83.16367, 6.3274e-003, 1.9933e-005
 367.05900, 83.29974, 6.3374e-003, 1.9521e-005
 367.55900, 83.43537, 6.3470e-003, 1.9386e-005
 368.05900, 83.57055, 6.3568e-003, 1.9094e-005
 368.55900, 83.70533, 6.3664e-003, 1.9509e-005
 369.05900, 83.83983, 6.3762e-003, 1.9364e-005
 369.55900, 83.97390, 6.3858e-003, 1.8864e-005
 370.05900, 84.10760, 6.3956e-003, 1.9929e-005
 370.55900, 84.24087, 6.4055e-003, 1.9356e-005
 371.05900, 84.37369, 6.4151e-003, 1.9166e-005
 371.55900, 84.50645, 6.4249e-003, 1.9727e-005
 372.05900, 84.63901, 6.4349e-003, 1.9894e-005
 372.55900, 84.77132, 6.4447e-003, 1.9751e-005
 373.05900, 84.90345, 6.4545e-003, 1.9832e-005
 373.55900, 85.03531, 6.4642e-003, 1.9066e-005
 374.05900, 85.16712, 6.4742e-003, 1.9789e-005
 374.55900, 85.29886, 6.4841e-003, 2.0178e-005
 375.05900, 85.43068, 6.4944e-003, 2.0092e-005
 375.55900, 85.56285, 6.5040e-003, 2.0138e-005
 376.05900, 85.69521, 6.5142e-003, 2.0125e-005
 376.55900, 85.82795, 6.5245e-003, 2.0548e-005
 377.05900, 85.96102, 6.5345e-003, 2.0543e-005
 377.55900, 86.09458, 6.5450e-003, 2.0334e-005
 378.05900, 86.22837, 6.5546e-003, 1.9785e-005
 378.55900, 86.36257, 6.5654e-003, 2.1143e-005
 379.05900, 86.49768, 6.5753e-003, 2.0289e-005
 379.55900, 86.63334, 6.5856e-003, 2.0813e-005
 380.05900, 86.76919, 6.5956e-003, 2.0955e-005
 380.55900, 86.90503, 6.6062e-003, 2.0929e-005
 381.05900, 87.04130, 6.6167e-003, 2.0810e-005
 381.55900, 87.17747, 6.6270e-003, 2.0242e-005
 382.05900, 87.31369, 6.6373e-003, 2.0663e-005
 382.55900, 87.45043, 6.6475e-003, 2.0742e-005
 383.05900, 87.58763, 6.6582e-003, 2.0771e-005
 383.55900, 87.72513, 6.6684e-003, 2.0336e-005
 384.05900, 87.86294, 6.6787e-003, 2.0521e-005
 384.55900, 88.00098, 6.6893e-003, 2.0887e-005
 385.05900, 88.13917, 6.6995e-003, 2.0176e-005
 385.55900, 88.27787, 6.7097e-003, 2.1074e-005
 386.05900, 88.41680, 6.7202e-003, 2.0325e-005
 386.55900, 88.55587, 6.7305e-003, 2.1420e-005
 387.05900, 88.69524, 6.7413e-003, 2.0580e-005
 387.55900, 88.83488, 6.7511e-003, 2.0478e-005
 388.05900, 88.97474, 6.7617e-003, 2.0145e-005
 388.55900, 89.11486, 6.7715e-003, 2.1160e-005
 389.05900, 89.25502, 6.7821e-003, 2.0724e-005
 389.55900, 89.39562, 6.7925e-003, 2.0777e-005
 390.05900, 89.53606, 6.8028e-003, 2.1470e-005
 390.55900, 89.67664, 6.8132e-003, 2.0026e-005
 391.05900, 89.81735, 6.8238e-003, 2.0648e-005
 391.55900, 89.95839, 6.8338e-003, 2.0839e-005
 392.05900, 90.09945, 6.8441e-003, 2.0661e-005
 392.55900, 90.24085, 6.8545e-003, 2.0326e-005
 393.05900, 90.38232, 6.8651e-003, 2.1354e-005
 393.55900, 90.52410, 6.8752e-003, 2.0828e-005
 394.05900, 90.66590, 6.8861e-003, 2.0085e-005
 394.55900, 90.80775, 6.8960e-003, 2.0542e-005
 395.05900, 90.94990, 6.9066e-003, 2.0723e-005
 395.55900, 91.09238, 6.9168e-003, 2.1463e-005
 396.05900, 91.23499, 6.9275e-003, 1.9856e-005
 396.55900, 91.37816, 6.9377e-003, 2.1113e-005
 397.05900, 91.52165, 6.9479e-003, 2.0675e-005
 397.55900, 91.66563, 6.9585e-003, 2.0543e-005
 398.05900, 91.80972, 6.9689e-003, 2.0396e-005
 398.55900, 91.95408, 6.9796e-003, 2.1221e-005
 399.05900, 92.09840, 6.9899e-003, 2.0831e-005
 399.55900, 92.24297, 7.0005e-003, 2.1283e-005
 400.05900, 92.38727, 7.0108e-003, 2.0863e-005
 400.55900, 92.53184, 7.0211e-003, 2.0462e-005
 401.05900, 92.67662, 7.0318e-003, 2.1536e-005
 401.55900, 92.82165, 7.0421e-003, 2.0506e-005
 402.05900, 92.96666, 7.0524e-003, 2.0797e-005
 402.55900, 93.11202, 7.0634e-003, 2.1566e-005
 403.05900, 93.25765, 7.0740e-003, 2.0829e-005
 403.55900, 93.40337, 7.0842e-003, 2.0860e-005
 404.05900, 93.54927, 7.0946e-003, 2.0659e-005
 404.55900, 93.69545, 7.1053e-003, 2.1238e-005
 405.05900, 93.84216, 7.1156e-003, 2.0649e-005
 405.55900, 93.98869, 7.1261e-003, 2.1005e-005
 406.05900, 94.13497, 7.1366e-003, 2.1967e-005
 406.55900, 94.28124, 7.1476e-003, 2.0751e-005
 407.05900, 94.42758, 7.1580e-003, 2.0960e-005
 407.55900, 94.57358, 7.1679e-003, 2.0031e-005
 408.05900, 94.71988, 7.1788e-003, 2.0659e-005
 408.55900, 94.86673, 7.1888e-003, 2.1061e-005
 409.05900, 95.01375, 7.1995e-003, 2.0738e-005
 409.55900, 95.16103, 7.2100e-003, 2.0601e-005
 410.05900, 95.30825, 7.2204e-003, 2.1339e-005
 410.55900, 95.45564, 7.2311e-003, 2.1133e-005
 411.05900, 95.60274, 7.2412e-003, 2.0959e-005
 411.55900, 95.75022, 7.2517e-003, 2.0926e-005
 412.05900, 95.89812, 7.2629e-003, 2.0906e-005
 412.55900, 96.04635, 7.2729e-003, 2.0900e-005
 413.05900, 96.19438, 7.2836e-003, 2.0804e-005
 413.55900, 96.34286, 7.2939e-003, 2.1921e-005
 414.05900, 96.49126, 7.3047e-003, 2.0729e-005
 414.55900, 96.63952, 7.3148e-003, 2.0985e-005
 415.05900, 96.78771, 7.3258e-003, 2.1286e-005
 415.55900, 96.93630, 7.3363e-003, 2.1297e-005
 416.05900, 97.08488, 7.3462e-003, 2.0668e-005
 416.55900, 97.23325, 7.3567e-003, 2.0693e-005
 417.05900, 97.38159, 7.3677e-003, 2.0776e-005
 417.55900, 97.53020, 7.3778e-003, 2.1120e-005
 418.05900, 97.67889, 7.3886e-003, 2.1247e-005
 418.55900, 97.82790, 7.3995e-003, 2.0766e-005
 419.05900, 97.97725, 7.4095e-003, 2.1191e-005
 419.55900, 98.12682, 7.4199e-003, 2.1231e-005
 420.05900, 98.27660, 7.4306e-003, 2.1101e-005
 420.55900, 98.42636, 7.4412e-003, 2.0843e-005
 421.05900, 98.57603, 7.4518e-003, 2.0551e-005
 421.55900, 98.72563, 7.4622e-003, 2.1647e-005
 422.05900, 98.87529, 7.4730e-003, 2.1265e-005
 422.55900, 99.02485, 7.4827e-003, 2.0689e-005
 423.05900, 99.17438, 7.4933e-003, 2.0896e-005
 423.55900, 99.32398, 7.5039e-003, 2.0913e-005
 424.05900, 99.47370, 7.5144e-003, 2.0897e-005
 424.55900, 99.62323, 7.5248e-003, 2.1120e-005
 425.05900, 99.77281, 7.5352e-003, 2.1013e-005
 425.55900, 99.92265, 7.5459e-003, 2.0310e-005
 426.05900,100.07278, 7.5565e-003, 2.0122e-005
 426.55900,100.22310, 7.5663e-003, 2.0913e-005
 427.05900,100.37370, 7.5769e-003, 2.2116e-005
 427.55900,100.52451, 7.5875e-003, 2.1358e-005
 428.05900,100.67544, 7.5984e-003, 2.0878e-005
 428.55900,100.82663, 7.6091e-003, 2.1365e-005
 429.05900,100.97787, 7.6195e-003, 2.0947e-005
 429.55900,101.12930, 7.6300e-003, 2.1653e-005
 430.05900,101.28047, 7.6402e-003, 1.9982e-005
 430.55900,101.43113, 7.6513e-003, 2.1752e-005
 431.05900,101.58180, 7.6619e-003, 2.1049e-005
 431.55900,101.73254, 7.6722e-003, 2.1089e-005
 432.05900,101.88357, 7.6825e-003, 2.1396e-005
 432.55900,102.03513, 7.6933e-003, 2.0546e-005
 433.05900,102.18683, 7.7038e-003, 2.1264e-005
 433.55900,102.33925, 7.7144e-003, 2.1710e-005
 434.05900,102.49154, 7.7248e-003, 2.1289e-005
 434.55900,102.64382, 7.7354e-003, 2.1531e-005
 435.05900,102.79617, 7.7458e-003, 2.0819e-005
 435.55900,102.94831, 7.7564e-003, 2.0680e-005
 436.05900,103.10001, 7.7666e-003, 2.1249e-005
 436.55900,103.25206, 7.7775e-003, 2.0963e-005
 437.05900,103.40409, 7.7881e-003, 2.0631e-005
 437.55900,103.55593, 7.7983e-003, 2.1795e-005
 438.05900,103.70805, 7.8087e-003, 2.0398e-005
 438.55900,103.86012, 7.8193e-003, 2.0906e-005
 439.05900,104.01196, 7.8296e-003, 2.1246e-005
 439.55900,104.16363, 7.8404e-003, 2.1093e-005
 440.05900,104.31547, 7.8509e-003, 2.0618e-005
 440.55900,104.46704, 7.8615e-003, 2.1157e-005
 441.05900,104.61861, 7.8720e-003, 2.1156e-005
 441.55900,104.77055, 7.8826e-003, 2.1780e-005
 442.05900,104.92246, 7.8929e-003, 2.0650e-005
 442.55900,105.07479, 7.9031e-003, 2.1109e-005
 443.05900,105.22734, 7.9136e-003, 2.1228e-005
 443.55900,105.38007, 7.9246e-003, 2.1999e-005
 444.05900,105.53310, 7.9354e-003, 2.0244e-005
 444.55900,105.68634, 7.9461e-003, 2.1462e-005
 445.05900,105.83941, 7.9566e-003, 2.1511e-005
 445.55900,105.99275, 7.9672e-003, 2.1184e-005
 446.05900,106.14589, 7.9779e-003, 2.0992e-005
 446.55900,106.29958, 7.9882e-003, 2.1764e-005
 447.05900,106.45326, 7.9991e-003, 2.1202e-005
 447.55900,106.60740, 8.0097e-003, 2.1199e-005
 448.05900,106.76173, 8.0204e-003, 2.1514e-005
 448.55900,106.91632, 8.0313e-003, 2.1216e-005
 449.05900,107.07070, 8.0418e-003, 2.0966e-005
 449.55900,107.22514, 8.0521e-003, 2.0204e-005
 450.05900,107.37963, 8.0625e-003, 2.1556e-005
 450.55900,107.53398, 8.0733e-003, 2.1607e-005
 451.05900,107.68845, 8.0840e-003, 2.1098e-005
 451.55900,107.84284, 8.0943e-003, 2.0340e-005
 452.05900,107.99715, 8.1049e-003, 2.1740e-005
 452.55900,108.15127, 8.1157e-003, 2.1904e-005
 453.05900,108.30553, 8.1263e-003, 2.0476e-005
 453.55900,108.45967, 8.1369e-003, 2.0976e-005
 454.05900,108.61374, 8.1470e-003, 2.0938e-005
 454.55900,108.76757, 8.1578e-003, 2.2035e-005
 455.05900,108.92193, 8.1687e-003, 2.0892e-005
 455.55900,109.07610, 8.1790e-003, 2.0415e-005
 456.05900,109.23050, 8.1893e-003, 2.1861e-005
 456.55900,109.38542, 8.1999e-003, 2.0488e-005
 457.05900,109.54020, 8.2108e-003, 2.1540e-005
 457.55900,109.69487, 8.2212e-003, 2.0421e-005
 458.05900,109.84968, 8.2318e-003, 2.1266e-005
 458.55900,110.00403, 8.2426e-003, 2.1503e-005
 459.05900,110.15861, 8.2534e-003, 2.1778e-005
 459.55900,110.31354, 8.2639e-003, 2.1370e-005
 460.05900,110.46868, 8.2744e-003, 2.1570e-005
 460.55900,110.62414, 8.2852e-003, 2.0882e-005
 461.05900,110.78017, 8.2958e-003, 2.1571e-005
 461.55900,110.93614, 8.3065e-003, 2.0703e-005
 462.05900,111.09228, 8.3171e-003, 2.1858e-005
 462.55900,111.24857, 8.3280e-003, 2.1413e-005
 463.05900,111.40499, 8.3386e-003, 2.0987e-005
 463.55900,111.56194, 8.3492e-003, 2.2273e-005
 464.05900,111.71826, 8.3597e-003, 2.1331e-005
 464.55900,111.87458, 8.3705e-003, 2.0887e-005
 465.05900,112.03066, 8.3817e-003, 2.2056e-005
 465.55900,112.18669, 8.3921e-003, 2.1569e-005
 466.05900,112.34286, 8.4027e-003, 2.1478e-005
 466.55900,112.49917, 8.4135e-003, 2.1051e-005
 467.05900,112.65552, 8.4240e-003, 2.1472e-005
 467.55900,112.81179, 8.4347e-003, 2.0842e-005
 468.05900,112.96789, 8.4453e-003, 2.0931e-005
 468.55900,113.12415, 8.4559e-003, 2.1213e-005
 469.05900,113.28055, 8.4667e-003, 2.1448e-005
 469.55900,113.43698, 8.4772e-003, 2.1596e-005
 470.05900,113.59354, 8.4881e-003, 2.1757e-005
 470.55900,113.75025, 8.4983e-003, 2.0277e-005
 471.05900,113.90690, 8.5092e-003, 2.2112e-005
 471.55900,114.06386, 8.5201e-003, 2.1456e-005
 472.05900,114.22094, 8.5305e-003, 2.1425e-005
 472.55900,114.37804, 8.5413e-003, 2.3243e-005
 473.05900,114.53527, 8.5525e-003, 2.1250e-005
 473.55900,114.69264, 8.5629e-003, 2.1738e-005
 474.05900,114.84958, 8.5740e-003, 2.1920e-005
 474.55900,115.00644, 8.5849e-003, 2.1467e-005
 475.05900,115.16341, 8.5958e-003, 2.2097e-005
 475.55900,115.32061, 8.6060e-003, 2.1006e-005
 476.05900,115.47826, 8.6167e-003, 2.1685e-005
 476.55900,115.63642, 8.6275e-003, 2.1359e-005
 477.05900,115.79501, 8.6383e-003, 2.1925e-005
 477.55900,115.95361, 8.6488e-003, 2.1404e-005
 478.05900,116.11231, 8.6601e-003, 2.1503e-005
 478.55900,116.27109, 8.6707e-003, 2.1043e-005
 479.05900,116.42977, 8.6812e-003, 2.0842e-005
 479.55900,116.58845, 8.6922e-003, 2.2511e-005
 480.05900,116.74704, 8.7029e-003, 2.1200e-005
 480.55900,116.90573, 8.7136e-003, 2.1418e-005
 481.05900,117.06433, 8.7241e-003, 2.1045e-005
 481.55900,117.22265, 8.7347e-003, 2.2024e-005
 482.05900,117.38134, 8.7458e-003, 2.1304e-005
 482.55900,117.54024, 8.7567e-003, 2.1154e-005
 483.05900,117.69909, 8.7675e-003, 2.1186e-005
 483.55900,117.85831, 8.7778e-003, 2.1888e-005
 484.05900,118.01774, 8.7887e-003, 2.1476e-005
 484.55900,118.17688, 8.7995e-003, 2.2263e-005
 485.05900,118.33633, 8.8103e-003, 2.1704e-005
 485.55900,118.49569, 8.8215e-003, 2.1481e-005
 486.05900,118.65502, 8.8318e-003, 2.1645e-005
 486.55900,118.81424, 8.8430e-003, 2.2633e-005
 487.05900,118.97362, 8.8541e-003, 2.2035e-005
 487.55900,119.13323, 8.8641e-003, 2.1434e-005
 488.05900,119.29308, 8.8750e-003, 2.0911e-005
 488.55900,119.45309, 8.8855e-003, 2.3150e-005
 489.05900,119.61324, 8.8963e-003, 2.1233e-005
 489.55900,119.77341, 8.9073e-003, 2.1512e-005
 490.05900,119.93355, 8.9179e-003, 2.1358e-005
 490.55900,120.09405, 8.9285e-003, 2.1364e-005
 491.05900,120.25478, 8.9396e-003, 2.0087e-005
 491.55900,120.41574, 8.9500e-003, 2.1713e-005
 492.05900,120.57681, 8.9612e-003, 2.1910e-005
 492.55900,120.73788, 8.9724e-003, 2.2043e-005
 493.05900,120.89895, 8.9828e-003, 2.1385e-005
 493.55900,121.06012, 8.9936e-003, 2.1561e-005
 494.05900,121.22157, 9.0046e-003, 2.1051e-005
 494.55900,121.38303, 9.0153e-003, 2.2028e-005
 495.05900,121.54453, 9.0260e-003, 2.1121e-005
 495.55900,121.70587, 9.0368e-003, 2.1290e-005
 496.05900,121.86694, 9.0480e-003, 2.2186e-005
 496.55900,122.02819, 9.0586e-003, 2.1550e-005
 497.05900,122.18966, 9.0695e-003, 2.1617e-005
 497.55900,122.35174, 9.0802e-003, 2.1214e-005
 498.05900,122.51379, 9.0912e-003, 2.1616e-005
 498.55900,122.67611, 9.1016e-003, 2.0413e-005
 499.05900,122.83821, 9.1127e-003, 2.1872e-005
 499.55900,122.99998, 9.1234e-003, 2.1570e-005
 500.05900,123.16155, 9.1342e-003, 2.1647e-005
 500.55900,123.32289, 9.1450e-003, 2.1770e-005
 501.05900,123.48409, 9.1559e-003, 2.1144e-005
 501.55900,123.64546, 9.1670e-003, 2.1726e-005
 502.05900,123.80679, 9.1775e-003, 2.1454e-005
 502.55900,123.96850, 9.1884e-003, 2.1971e-005
 503.05900,124.13016, 9.1988e-003, 2.1219e-005
 503.55900,124.29201, 9.2101e-003, 2.1795e-005
 504.05900,124.45412, 9.2210e-003, 2.0492e-005
 504.55900,124.61627, 9.2316e-003, 2.2337e-005
 505.05900,124.77870, 9.2427e-003, 2.1609e-005
 505.55900,124.94192, 9.2535e-003, 2.0952e-005
 506.05900,125.10494, 9.2643e-003, 2.1609e-005
 506.55900,125.26841, 9.2755e-003, 2.2563e-005
 507.05900,125.43194, 9.2861e-003, 2.1724e-005
 507.55900,125.59520, 9.2972e-003, 2.1870e-005
 508.05900,125.75843, 9.3081e-003, 2.2275e-005
 508.55900,125.92180, 9.3192e-003, 2.1358e-005
 509.05900,126.08507, 9.3299e-003, 2.2172e-005
 509.55900,126.24855, 9.3410e-003, 2.2175e-005
 510.05900,126.41205, 9.3520e-003, 2.2698e-005
 510.55900,126.57605, 9.3633e-003, 2.1697e-005
 511.05900,126.74029, 9.3740e-003, 2.2423e-005
 511.55900,126.90507, 9.3851e-003, 2.2380e-005
 512.05900,127.07054, 9.3972e-003, 2.2646e-005
 512.55900,127.23591, 9.4079e-003, 2.2236e-005
 513.05900,127.40111, 9.4194e-003, 2.2849e-005
 513.55900,127.56644, 9.4310e-003, 2.2148e-005
 514.05900,127.73200, 9.4420e-003, 2.3541e-005
 514.55900,127.89795, 9.4535e-003, 2.1774e-005
 515.05900,128.06460, 9.4650e-003, 2.2804e-005
 515.55900,128.23222, 9.4766e-003, 2.3146e-005
 516.05900,128.39995, 9.4880e-003, 2.2922e-005
 516.55900,128.56823, 9.4991e-003, 2.2842e-005
 517.05900,128.73643, 9.5105e-003, 2.3044e-005
 517.55900,128.90464, 9.5220e-003, 2.2618e-005
 518.05900,129.07280, 9.5332e-003, 2.2218e-005
 518.55900,129.24040, 9.5448e-003, 2.2284e-005
 519.05900,129.40757, 9.5556e-003, 2.2027e-005
 519.55900,129.57399, 9.5662e-003, 2.1904e-005
 520.05900,129.73987, 9.5770e-003, 2.2149e-005
 520.55900,129.90473, 9.5877e-003, 2.1859e-005
 521.05900,130.06845, 9.5983e-003, 2.1107e-005
 521.55900,130.23102, 9.6094e-003, 2.1637e-005
 522.05900,130.39227, 9.6201e-003, 2.0320e-005
 522.55900,130.55305, 9.6301e-003, 2.0585e-005
 523.05900,130.71319, 9.6406e-003, 2.0650e-005
 523.55900,130.87288, 9.6510e-003, 2.0695e-005
 524.05900,131.03245, 9.6616e-003, 2.1475e-005
 524.55900,131.19167, 9.6716e-003, 2.0105e-005
 525.05900,131.35004, 9.6825e-003, 2.2195e-005
 525.55900,131.50799, 9.6931e-003, 2.1571e-005
 526.05900,131.66572, 9.7042e-003, 2.1067e-005
 526.55900,131.82322, 9.7144e-003, 2.1086e-005
 527.05900,131.98125, 9.7251e-003, 2.2082e-005
 527.55900,132.13950, 9.7356e-003, 2.1519e-005
 528.05900,132.29816, 9.7470e-003, 2.1925e-005
 528.55900,132.45667, 9.7578e-003, 2.1385e-005
 529.05900,132.61536, 9.7686e-003, 2.1252e-005
 529.55900,132.77424, 9.7798e-003, 2.1911e-005
 530.05900,132.93353, 9.7904e-003, 2.1961e-005
 530.55900,133.09394, 9.8016e-003, 2.1845e-005
 531.05900,133.25469, 9.8132e-003, 2.1818e-005
 531.55900,133.41607, 9.8237e-003, 2.1741e-005
 532.05900,133.57789, 9.8349e-003, 2.2144e-005
 532.55900,133.74008, 9.8457e-003, 2.1907e-005
 533.05900,133.90258, 9.8571e-003, 2.1934e-005
 533.55900,134.06533, 9.8680e-003, 2.2159e-005
 534.05900,134.22818, 9.8788e-003, 2.2708e-005
 534.55900,134.39096, 9.8904e-003, 2.1844e-005
 535.05900,134.55392, 9.9014e-003, 2.2131e-005
 535.55900,134.71701, 9.9125e-003, 2.3121e-005
 536.05900,134.88056, 9.9234e-003, 2.2159e-005
 536.55900,135.04446, 9.9350e-003, 2.1705e-005
 537.05900,135.20883, 9.9458e-003, 2.2781e-005
 537.55900,135.37337, 9.9562e-003, 2.3140e-005
 538.05900,135.53788, 9.9679e-003, 2.2696e-005
 538.55900,135.70250, 9.9791e-003, 2.0888e-005
 539.05900,135.86709, 9.9902e-003, 2.2474e-005
 539.55900,136.03212, 1.0001e-002, 2.2163e-005
 540.05900,136.19766, 1.0013e-002, 2.2228e-005
 540.55900,136.36354, 1.0023e-002, 2.2824e-005
 541.05900,136.52951, 1.0035e-002, 2.4000e-005
 541.55900,136.69566, 1.0046e-002, 2.1298e-005
 542.05900,136.86219, 1.0057e-002, 2.2481e-005
 542.55900,137.02886, 1.0069e-002, 2.2015e-005
 543.05900,137.19571, 1.0079e-002, 2.2992e-005
 543.55900,137.36254, 1.0091e-002, 2.1714e-005
 544.05900,137.52949, 1.0102e-002, 2.3172e-005
 544.55900,137.69623, 1.0113e-002, 2.2136e-005
 545.05900,137.86321, 1.0124e-002, 2.2148e-005
 545.55900,138.03125, 1.0136e-002, 2.2183e-005
 546.05900,138.19936, 1.0147e-002, 2.3621e-005
 546.55900,138.36810, 1.0158e-002, 2.2177e-005
 547.05900,138.53729, 1.0169e-002, 2.1939e-005
 547.55900,138.70651, 1.0181e-002, 2.2707e-005
 548.05900,138.87602, 1.0192e-002, 2.2528e-005
 548.55900,139.04562, 1.0203e-002, 2.1992e-005
 549.05900,139.21513, 1.0215e-002, 2.2857e-005
 549.55900,139.38446, 1.0226e-002, 2.2585e-005
 550.05900,139.55386, 1.0237e-002, 2.2203e-005
 550.55900,139.72340, 1.0248e-002, 2.3443e-005
 551.05900,139.89324, 1.0260e-002, 2.1956e-005
 551.55900,140.06340, 1.0271e-002, 2.2866e-005
 552.05900,140.23358, 1.0282e-002, 2.2442e-005
 552.55900,140.40444, 1.0294e-002, 2.2883e-005
 553.05900,140.57541, 1.0305e-002, 2.2064e-005
 553.55900,140.74651, 1.0316e-002, 2.2400e-005
 554.05900,140.91741, 1.0327e-002, 2.2469e-005
 554.55900,141.08757, 1.0338e-002, 2.1985e-005
 555.05900,141.25726, 1.0350e-002, 2.2167e-005
 555.55900,141.42715, 1.0361e-002, 2.2566e-005
 556.05900,141.59717, 1.0372e-002, 2.2355e-005
 556.55900,141.76783, 1.0383e-002, 2.2243e-005
 557.05900,141.93798, 1.0395e-002, 2.2185e-005
 557.55900,142.10799, 1.0406e-002, 2.2171e-005
 558.05900,142.27768, 1.0417e-002, 2.2674e-005
 558.55900,142.44761, 1.0428e-002, 2.2465e-005
 559.05900,142.61840, 1.0439e-002, 2.3305e-005
 559.55900,142.78969, 1.0451e-002, 2.1949e-005
 560.05900,142.96144, 1.0462e-002, 2.2612e-005
 560.55900,143.13331, 1.0474e-002, 2.2185e-005
 561.05900,143.30483, 1.0485e-002, 2.3350e-005
 561.55900,143.47630, 1.0496e-002, 2.3334e-005
 562.05900,143.64720, 1.0508e-002, 2.2987e-005
 562.55900,143.81796, 1.0519e-002, 2.3138e-005
 563.05900,143.98979, 1.0530e-002, 2.1752e-005
 563.55900,144.16152, 1.0542e-002, 2.2162e-005
 564.05900,144.33356, 1.0553e-002, 2.2901e-005
 564.55900,144.50629, 1.0564e-002, 2.2237e-005
 565.05900,144.67792, 1.0575e-002, 2.2572e-005
 565.55900,144.84978, 1.0587e-002, 2.4025e-005
 566.05900,145.02194, 1.0598e-002, 2.1851e-005
 566.55900,145.19391, 1.0609e-002, 2.2975e-005
 567.05900,145.36679, 1.0621e-002, 2.2577e-005
 567.55900,145.53964, 1.0632e-002, 2.3926e-005
 568.05900,145.71239, 1.0643e-002, 2.2776e-005
 568.55900,145.88543, 1.0654e-002, 2.2142e-005
 569.05900,146.05796, 1.0666e-002, 2.2466e-005
 569.55900,146.23046, 1.0677e-002, 2.2108e-005
 570.05900,146.40304, 1.0688e-002, 2.2427e-005
 570.55900,146.57545, 1.0699e-002, 2.2153e-005
 571.05900,146.74796, 1.0711e-002, 2.2497e-005
 571.55900,146.92028, 1.0722e-002, 2.1521e-005
 572.05900,147.09257, 1.0733e-002, 2.3623e-005
 572.55900,147.26468, 1.0744e-002, 2.4431e-005
 573.05900,147.43683, 1.0756e-002, 2.2298e-005
 573.55900,147.60916, 1.0767e-002, 2.3336e-005
 574.05900,147.78182, 1.0778e-002, 2.3102e-005
 574.55900,147.95436, 1.0789e-002, 2.3143e-005
 575.05900,148.12721, 1.0801e-002, 2.3745e-005
 575.55900,148.30063, 1.0812e-002, 2.2507e-005
 576.05900,148.47429, 1.0824e-002, 2.1990e-005
 576.55900,148.64796, 1.0835e-002, 2.2605e-005
 577.05900,148.82144, 1.0846e-002, 2.2446e-005
 577.55900,148.99415, 1.0858e-002, 2.2912e-005
 578.05900,149.16644, 1.0870e-002, 2.2300e-005
 578.55900,149.33904, 1.0881e-002, 2.2745e-005
 579.05900,149.51183, 1.0892e-002, 2.2849e-005
 579.55900,149.68538, 1.0903e-002, 2.2442e-005
 580.05900,149.85954, 1.0915e-002, 2.2534e-005
 580.55900,150.03401, 1.0926e-002, 2.2513e-005
 581.05900,150.20857, 1.0937e-002, 2.3094e-005
 581.55900,150.38312, 1.0948e-002, 2.2271e-005
 582.05900,150.55723, 1.0960e-002, 2.2945e-005
 582.55900,150.73110, 1.0971e-002, 2.3439e-005
 583.05900,150.90493, 1.0982e-002, 2.3378e-005
 583.55900,151.07829, 1.0994e-002, 2.1950e-005
 584.05900,151.25153, 1.1005e-002, 2.2183e-005
 584.55900,151.42486, 1.1016e-002, 2.2829e-005
 585.05900,151.59832, 1.1028e-002, 2.3535e-005
 585.55900,151.77179, 1.1039e-002, 2.3858e-005
 586.05900,151.94556, 1.1051e-002, 2.2678e-005
 586.55900,152.11954, 1.1062e-002, 2.2885e-005
 587.05900,152.29362, 1.1073e-002, 2.2690e-005
 587.55900,152.46769, 1.1084e-002, 2.3004e-005
 588.05900,152.64173, 1.1096e-002, 2.2771e-005
 588.55900,152.81563, 1.1107e-002, 2.2068e-005
 589.05900,152.98930, 1.1118e-002, 2.1742e-005
 589.55900,153.16375, 1.1129e-002, 2.3608e-005
 590.05900,153.33847, 1.1140e-002, 2.2119e-005
 590.55900,153.51325, 1.1152e-002, 2.1892e-005
 591.05900,153.68836, 1.1163e-002, 2.1984e-005
 591.55900,153.86260, 1.1175e-002, 2.3009e-005
 592.05900,154.03708, 1.1185e-002, 2.1621e-005
 592.55900,154.21153, 1.1197e-002, 2.3823e-005
 593.05900,154.38520, 1.1208e-002, 2.3457e-005
 593.55900,154.55934, 1.1220e-002, 2.2502e-005
 594.05900,154.73328, 1.1231e-002, 2.2398e-005
 594.55900,154.90705, 1.1242e-002, 2.2007e-005
 595.05900,155.08133, 1.1254e-002, 2.2470e-005
 595.55900,155.25614, 1.1265e-002, 2.3372e-005
 596.05900,155.43105, 1.1277e-002, 2.2819e-005
 596.55900,155.60635, 1.1288e-002, 2.3095e-005
 597.05900,155.78218, 1.1299e-002, 2.2644e-005
 597.55900,155.95817, 1.1310e-002, 2.2808e-005
 598.05900,156.13404, 1.1322e-002, 2.3054e-005
 598.55900,156.30987, 1.1334e-002, 2.3806e-005
 599.05900,156.48530, 1.1345e-002, 2.3437e-005
 599.55900,156.66061, 1.1357e-002, 2.2710e-005
 600.05900,156.83672, 1.1368e-002, 2.2162e-005
 600.55900,157.01330, 1.1379e-002, 2.3779e-005
 601.05900,157.19044, 1.1390e-002, 2.1783e-005
 601.55900,157.36743, 1.1402e-002, 2.3396e-005
 602.05900,157.54327, 1.1414e-002, 2.2768e-005
 602.55900,157.71867, 1.1424e-002, 2.1437e-005
 603.05900,157.89391, 1.1436e-002, 2.3342e-005
 603.55900,158.06912, 1.1447e-002, 2.2550e-005
 604.05900,158.24490, 1.1458e-002, 2.3366e-005
 604.55900,158.42083, 1.1469e-002, 2.2741e-005
 605.05900,158.59661, 1.1481e-002, 2.2638e-005
 605.55900,158.77271, 1.1492e-002, 2.3555e-005
 606.05900,158.94884, 1.1504e-002, 2.2858e-005
 606.55900,159.12520, 1.1515e-002, 2.4223e-005
 607.05900,159.30149, 1.1527e-002, 2.2986e-005
 607.55900,159.47803, 1.1538e-002, 2.2819e-005
 608.05900,159.65459, 1.1549e-002, 2.1976e-005
 608.55900,159.83131, 1.1560e-002, 2.1430e-005
 609.05900,160.00842, 1.1572e-002, 2.2183e-005
 609.55900,160.18530, 1.1583e-002, 2.2931e-005
 610.05900,160.36206, 1.1594e-002, 2.3084e-005
 610.55900,160.53881, 1.1606e-002, 2.3484e-005
 611.05900,160.71547, 1.1617e-002, 2.2879e-005
 611.55900,160.89248, 1.1629e-002, 2.2097e-005
 612.05900,161.06968, 1.1640e-002, 2.4153e-005
 612.55900,161.24666, 1.1651e-002, 2.2896e-005
 613.05900,161.42351, 1.1663e-002, 2.2234e-005
 613.55900,161.59979, 1.1674e-002, 2.3428e-005
 614.05900,161.77593, 1.1686e-002, 2.1807e-005
 614.55900,161.95237, 1.1697e-002, 2.3338e-005
 615.05900,162.12885, 1.1708e-002, 2.2520e-005
 615.55900,162.30537, 1.1720e-002, 2.2087e-005
 616.05900,162.48188, 1.1731e-002, 2.2922e-005
 616.55900,162.65833, 1.1743e-002, 2.3772e-005
 617.05900,162.83555, 1.1754e-002, 2.4528e-005
 617.55900,163.01361, 1.1766e-002, 2.3705e-005
 618.05900,163.19250, 1.1778e-002, 2.4179e-005
 618.55900,163.37245, 1.1789e-002, 2.2002e-005
 619.05900,163.55207, 1.1801e-002, 2.2959e-005
 619.55900,163.73202, 1.1812e-002, 2.3391e-005
 620.05900,163.91261, 1.1825e-002, 2.3614e-005
 620.55900,164.09329, 1.1836e-002, 2.3868e-005
 621.05900,164.27523, 1.1848e-002, 2.3920e-005
 621.55900,164.45788, 1.1860e-002, 2.3323e-005
 622.05900,164.64061, 1.1872e-002, 2.4206e-005
 622.55900,164.82386, 1.1884e-002, 2.4584e-005
 623.05900,165.00671, 1.1895e-002, 2.2768e-005
 623.55900,165.18967, 1.1907e-002, 2.4689e-005
 624.05900,165.37270, 1.1919e-002, 2.3020e-005
 624.55900,165.55572, 1.1930e-002, 2.1814e-005
 625.05900,165.73858, 1.1942e-002, 2.3498e-005
 625.55900,165.92034, 1.1953e-002, 2.3630e-005
 626.05900,166.10110, 1.1964e-002, 2.1303e-005
 626.55900,166.28080, 1.1975e-002, 2.2172e-005
 627.05900,166.46029, 1.1985e-002, 2.2389e-005
 627.55900,166.63885, 1.1997e-002, 2.3700e-005
 628.05900,166.81642, 1.2009e-002, 2.2024e-005
 628.55900,166.99310, 1.2019e-002, 2.1825e-005
 629.05900,167.16828, 1.2030e-002, 2.2351e-005
 629.55900,167.34285, 1.2041e-002, 2.0092e-005
 630.05900,167.51689, 1.2052e-002, 2.3080e-005
 630.55900,167.69006, 1.2062e-002, 2.0372e-005
 631.05900,167.86267, 1.2074e-002, 2.2036e-005
 631.55900,168.03509, 1.2085e-002, 2.2779e-005
 632.05900,168.20777, 1.2096e-002, 2.2225e-005
 632.55900,168.38041, 1.2107e-002, 2.0611e-005
 633.05900,168.55349, 1.2118e-002, 2.4724e-005
 633.55900,168.72720, 1.2130e-002, 2.1789e-005
 634.05900,168.90107, 1.2140e-002, 2.1406e-005
 634.55900,169.07550, 1.2151e-002, 2.2205e-005
 635.05900,169.25017, 1.2162e-002, 2.1764e-005
 635.55900,169.42470, 1.2174e-002, 2.2937e-005
 636.05900,169.59943, 1.2186e-002, 2.2160e-005
 636.55900,169.77432, 1.2196e-002, 2.3174e-005
 637.05900,169.94953, 1.2207e-002, 2.1855e-005
 637.55900,170.12494, 1.2218e-002, 2.3759e-005
 638.05900,170.29960, 1.2231e-002, 2.3870e-005
 638.55900,170.47433, 1.2241e-002, 2.0243e-005
 639.05900,170.64905, 1.2252e-002, 2.3860e-005
 639.55900,170.82435, 1.2264e-002, 2.2152e-005
 640.05900,171.00060, 1.2276e-002, 2.3483e-005
 640.55900,171.17700, 1.2287e-002, 2.3250e-005
 641.05900,171.35399, 1.2298e-002, 2.2704e-005
 641.55900,171.53111, 1.2309e-002, 2.3133e-005
 642.05900,171.70840, 1.2321e-002, 2.3673e-005
 642.55900,171.88603, 1.2332e-002, 2.4051e-005
 643.05900,172.06384, 1.2343e-002, 2.2361e-005
 643.55900,172.24199, 1.2354e-002, 2.3059e-005
 644.05900,172.42002, 1.2366e-002, 2.2172e-005
 644.55900,172.59833, 1.2377e-002, 2.1758e-005
 645.05900,172.77679, 1.2389e-002, 2.2847e-005
 645.55900,172.95551, 1.2400e-002, 2.2757e-005
 646.05900,173.13486, 1.2411e-002, 2.2881e-005
 646.55900,173.31434, 1.2422e-002, 2.1452e-005
 647.05900,173.49410, 1.2434e-002, 2.2561e-005
 647.55900,173.67408, 1.2445e-002, 2.2452e-005
 648.05900,173.85429, 1.2456e-002, 2.0762e-005
 648.55900,174.03474, 1.2467e-002, 2.1748e-005
 649.05900,174.21535, 1.2479e-002, 2.3443e-005
 649.55900,174.39559, 1.2489e-002, 2.1236e-005
 650.05900,174.57579, 1.2501e-002, 2.2782e-005
 650.55900,174.75645, 1.2513e-002, 2.2953e-005
 651.05900,174.93774, 1.2523e-002, 2.3924e-005
 651.55900,175.11936, 1.2535e-002, 2.2045e-005
 652.05900,175.30141, 1.2546e-002, 2.3511e-005
 652.55900,175.48326, 1.2557e-002, 2.1872e-005
 653.05900,175.66461, 1.2568e-002, 2.1665e-005
 653.55900,175.84619, 1.2579e-002, 2.2895e-005
 654.05900,176.02761, 1.2591e-002, 2.2593e-005
 654.55900,176.20919, 1.2602e-002, 2.3125e-005
 655.05900,176.39112, 1.2614e-002, 2.3382e-005
 655.55900,176.57288, 1.2625e-002, 2.2316e-005
 656.05900,176.75511, 1.2636e-002, 2.3276e-005
 656.55900,176.93707, 1.2648e-002, 2.2884e-005
 657.05900,177.11971, 1.2659e-002, 2.1634e-005
 657.55900,177.30221, 1.2670e-002, 2.1522e-005
 658.05900,177.48420, 1.2684e-002, 2.6119e-005
 658.55900,177.66652, 1.2694e-002, 2.1627e-005
 659.05900,177.84860, 1.2706e-002, 2.3582e-005
 659.55900,178.03151, 1.2716e-002, 2.0489e-005
 660.05900,178.21522, 1.2727e-002, 2.3772e-005
 660.55900,178.39861, 1.2738e-002, 2.3064e-005
 661.05900,178.58149, 1.2750e-002, 2.2968e-005
 661.55900,178.76413, 1.2760e-002, 2.2896e-005
 662.05900,178.94678, 1.2772e-002, 2.3164e-005
 662.55900,179.12966, 1.2783e-002, 2.1932e-005
 663.05900,179.31324, 1.2794e-002, 2.3485e-005
 663.55900,179.49715, 1.2806e-002, 2.3408e-005
 664.05900,179.68095, 1.2817e-002, 2.4054e-005
 664.55900,179.86562, 1.2828e-002, 2.2795e-005
 665.05900,180.05026, 1.2839e-002, 2.3954e-005
 665.55900,180.23479, 1.2851e-002, 2.3870e-005
 666.05900,180.41954, 1.2862e-002, 2.4015e-005
 666.55900,180.60432, 1.2874e-002, 2.1713e-005
 667.05900,180.78906, 1.2885e-002, 2.3368e-005
 667.55900,180.97382, 1.2897e-002, 2.2449e-005
 668.05900,181.15908, 1.2908e-002, 2.2039e-005
 668.55900,181.34429, 1.2920e-002, 2.2813e-005
 669.05900,181.53021, 1.2931e-002, 2.3249e-005
 669.55900,181.71684, 1.2943e-002, 2.2954e-005
 670.05900,181.90390, 1.2954e-002, 2.3526e-005
 670.55900,182.09149, 1.2965e-002, 2.4765e-005
 671.05900,182.27900, 1.2978e-002, 2.3054e-005
 671.55900,182.46745, 1.2989e-002, 2.2705e-005
 672.05900,182.65643, 1.3001e-002, 2.2003e-005
 672.55900,182.84627, 1.3013e-002, 2.3715e-005
 673.05900,183.03639, 1.3025e-002, 2.2619e-005
 673.55900,183.22704, 1.3037e-002, 2.3763e-005
 674.05900,183.41833, 1.3049e-002, 2.2918e-005
 674.55900,183.61015, 1.3060e-002, 2.4033e-005
 675.05900,183.80214, 1.3073e-002, 2.4015e-005
 675.55900,183.99318, 1.3084e-002, 2.3215e-005
 676.05900,184.18304, 1.3095e-002, 2.1643e-005
 676.55900,184.37221, 1.3106e-002, 2.1514e-005
 677.05900,184.56069, 1.3117e-002, 2.1144e-005
 677.55900,184.74767, 1.3129e-002, 2.2112e-005
 678.05900,184.93313, 1.3140e-002, 2.1711e-005
 678.55900,185.11715, 1.3151e-002, 2.1024e-005
 679.05900,185.29966, 1.3162e-002, 2.2394e-005
 679.55900,185.48179, 1.3173e-002, 2.1106e-005
 680.05900,185.66396, 1.3184e-002, 2.1343e-005
 680.55900,185.84600, 1.3195e-002, 2.2192e-005
 681.05900,186.02807, 1.3206e-002, 2.0555e-005
 681.55900,186.20979, 1.3217e-002, 2.2957e-005
 682.05900,186.39147, 1.3228e-002, 2.2859e-005
 682.55900,186.57285, 1.3239e-002, 2.2023e-005
 683.05900,186.75459, 1.3251e-002, 2.2962e-005
 683.55900,186.93673, 1.3262e-002, 2.3282e-005
 684.05900,187.11873, 1.3273e-002, 2.0936e-005
 684.55900,187.30105, 1.3284e-002, 2.1704e-005
 685.05900,187.48347, 1.3296e-002, 2.2464e-005
 685.55900,187.66575, 1.3307e-002, 2.2651e-005
 686.05900,187.84902, 1.3318e-002, 2.3070e-005
 686.55900,188.03306, 1.3329e-002, 2.1076e-005
 687.05900,188.21773, 1.3340e-002, 2.4084e-005
 687.55900,188.40281, 1.3353e-002, 2.1535e-005
 688.05900,188.58808, 1.3364e-002, 2.3359e-005
 688.55900,188.77321, 1.3375e-002, 2.3128e-005
 689.05900,188.95864, 1.3386e-002, 2.4503e-005
 689.55900,189.14448, 1.3399e-002, 2.3189e-005
 690.05900,189.33048, 1.3410e-002, 2.2694e-005
 690.55900,189.51728, 1.3421e-002, 2.2765e-005
 691.05900,189.70432, 1.3433e-002, 2.2143e-005
 691.55900,189.89107, 1.3444e-002, 2.2011e-005
 692.05900,190.07821, 1.3456e-002, 2.2670e-005
 692.55900,190.26575, 1.3467e-002, 2.3595e-005
 693.05900,190.45422, 1.3479e-002, 2.2530e-005
 693.55900,190.64312, 1.3490e-002, 2.3632e-005
 694.05900,190.83156, 1.3502e-002, 2.3370e-005
 694.55900,191.01961, 1.3514e-002, 2.3072e-005
 695.05900,191.20715, 1.3525e-002, 2.2933e-005
 695.55900,191.39546, 1.3537e-002, 2.3847e-005
 696.05900,191.58444, 1.3547e-002, 2.0707e-005
 696.55900,191.77379, 1.3559e-002, 2.3227e-005
 697.05900,191.96389, 1.3569e-002, 2.3260e-005
 697.55900,192.15358, 1.3581e-002, 2.3937e-005
 698.05900,192.34332, 1.3593e-002, 2.1585e-005
 698.55900,192.53316, 1.3604e-002, 2.0855e-005
 699.05900,192.72306, 1.3615e-002, 2.1086e-005
 699.55900,192.91287, 1.3626e-002, 2.0796e-005
 700.05900,193.10207, 1.3638e-002, 2.2094e-005
 700.55900,193.29099, 1.3649e-002, 2.3175e-005
 701.05900,193.47992, 1.3660e-002, 2.3639e-005
 701.55900,193.66911, 1.3672e-002, 2.2988e-005
 702.05900,193.85868, 1.3683e-002, 2.4539e-005
 702.55900,194.04945, 1.3694e-002, 2.4445e-005
 703.05900,194.24020, 1.3706e-002, 2.5212e-005
 703.55900,194.43087, 1.3717e-002, 2.2243e-005
 704.05900,194.62163, 1.3728e-002, 2.2130e-005
 704.55900,194.81136, 1.3740e-002, 2.3147e-005
 705.05900,195.00079, 1.3751e-002, 2.4216e-005
 705.55900,195.18972, 1.3763e-002, 2.3816e-005
 706.05900,195.37887, 1.3773e-002, 2.3659e-005
 706.55900,195.56813, 1.3784e-002, 2.3904e-005
 707.05900,195.75750, 1.3796e-002, 2.2422e-005
 707.55900,195.94733, 1.3808e-002, 2.2512e-005
 708.05900,196.13696, 1.3819e-002, 2.2504e-005
 708.55900,196.32665, 1.3831e-002, 2.1058e-005
 709.05900,196.51666, 1.3842e-002, 2.2888e-005
 709.55900,196.70669, 1.3853e-002, 2.2843e-005
 710.05900,196.89691, 1.3865e-002, 2.3005e-005
 710.55900,197.08744, 1.3876e-002, 2.1100e-005
 711.05900,197.27799, 1.3888e-002, 2.3654e-005
 711.55900,197.46868, 1.3899e-002, 2.1559e-005
 712.05900,197.66000, 1.3911e-002, 2.0770e-005
 712.55900,197.85173, 1.3922e-002, 2.2106e-005
 713.05900,198.04363, 1.3933e-002, 2.3970e-005
 713.55900,198.23562, 1.3945e-002, 2.3439e-005
 714.05900,198.42720, 1.3956e-002, 2.1408e-005
 714.55900,198.61837, 1.3967e-002, 2.3705e-005
 715.05900,198.80920, 1.3979e-002, 2.3176e-005
 715.55900,198.99989, 1.3990e-002, 2.1547e-005
 716.05900,199.19115, 1.4002e-002, 2.2799e-005
 716.55900,199.38162, 1.4013e-002, 2.3281e-005
 717.05900,199.57231, 1.4024e-002, 2.1847e-005
 717.55900,199.76218, 1.4035e-002, 2.0665e-005
 718.05900,199.95186, 1.4047e-002, 2.0577e-005
 718.55900,200.14243, 1.4057e-002, 2.3982e-005
 719.05900,200.33316, 1.4069e-002, 2.1895e-005
 719.55900,200.52472, 1.4081e-002, 2.1233e-005
 720.05900,200.71682, 1.4092e-002, 2.4351e-005
 720.55900,200.90880, 1.4103e-002, 2.4156e-005
 721.05900,201.10050, 1.4115e-002, 2.2815e-005
 721.55900,201.29142, 1.4126e-002, 2.3500e-005
 722.05900,201.48265, 1.4137e-002, 2.2869e-005
 722.55900,201.67403, 1.4149e-002, 2.2399e-005
 723.05900,201.86644, 1.4160e-002, 2.2961e-005
 723.55900,202.05875, 1.4171e-002, 2.1617e-005
 724.05900,202.25103, 1.4182e-002, 2.1485e-005
 724.55900,202.44330, 1.4194e-002, 2.1471e-005
 725.05900,202.63518, 1.4205e-002, 2.1365e-005
 725.55900,202.82728, 1.4217e-002, 2.0279e-005
 726.05900,203.01895, 1.4228e-002, 2.4791e-005
 726.55900,203.21086, 1.4240e-002, 2.3065e-005
 727.05900,203.40264, 1.4251e-002, 2.2856e-005
 727.55900,203.59448, 1.4262e-002, 2.2928e-005
 728.05900,203.78711, 1.4274e-002, 2.2720e-005
 728.55900,203.97931, 1.4285e-002, 2.2546e-005
 729.05900,204.17193, 1.4297e-002, 2.0202e-005
 729.55900,204.36376, 1.4308e-002, 2.2175e-005
 730.05900,204.55493, 1.4320e-002, 2.3319e-005
 730.55900,204.74626, 1.4331e-002, 2.2110e-005
 731.05900,204.93818, 1.4343e-002, 2.2028e-005
 731.55900,205.13080, 1.4354e-002, 2.2207e-005
 732.05900,205.32347, 1.4366e-002, 2.3055e-005
 732.55900,205.51628, 1.4377e-002, 2.0945e-005
 733.05900,205.70875, 1.4389e-002, 2.1155e-005
 733.55900,205.90120, 1.4400e-002, 2.3512e-005
 734.05900,206.09354, 1.4411e-002, 2.2039e-005
 734.55900,206.28577, 1.4424e-002, 2.2029e-005
 735.05900,206.47802, 1.4435e-002, 2.3630e-005
 735.55900,206.67021, 1.4446e-002, 2.4059e-005
 736.05900,206.86298, 1.4457e-002, 2.3154e-005
 736.55900,207.05569, 1.4468e-002, 2.4184e-005
 737.05900,207.24816, 1.4481e-002, 2.5488e-005
 737.55900,207.44084, 1.4492e-002, 2.1789e-005
 738.05900,207.63334, 1.4503e-002, 2.2364e-005
 738.55900,207.82655, 1.4515e-002, 2.3801e-005
 739.05900,208.01990, 1.4527e-002, 2.0592e-005
 739.55900,208.21303, 1.4538e-002, 2.2348e-005
 740.05900,208.40568, 1.4549e-002, 2.4017e-005
 740.55900,208.59834, 1.4561e-002, 2.2060e-005
 741.05900,208.79077, 1.4573e-002, 2.4343e-005
 741.55900,208.98323, 1.4584e-002, 2.3722e-005
 742.05900,209.17629, 1.4596e-002, 2.3226e-005
 742.55900,209.36954, 1.4608e-002, 2.3013e-005
 743.05900,209.56391, 1.4620e-002, 2.4764e-005
 743.55900,209.75867, 1.4631e-002, 2.3773e-005
 744.05900,209.95402, 1.4643e-002, 2.4580e-005
 744.55900,210.14962, 1.4654e-002, 2.4636e-005
 745.05900,210.34613, 1.4666e-002, 2.4699e-005
 745.55900,210.54368, 1.4679e-002, 2.3520e-005
 746.05900,210.74265, 1.4690e-002, 2.5198e-005
 746.55900,210.94232, 1.4702e-002, 2.2340e-005
 747.05900,211.14260, 1.4714e-002, 2.5954e-005
 747.55900,211.34315, 1.4727e-002, 2.7064e-005
 748.05900,211.54335, 1.4738e-002, 2.1626e-005
 748.55900,211.74334, 1.4750e-002, 2.1563e-005
 749.05900,211.94182, 1.4762e-002, 2.1011e-005
 749.55900,212.13964, 1.4773e-002, 2.2861e-005
 750.05900,212.33582, 1.4784e-002, 2.0579e-005
 750.55900,212.53032, 1.4796e-002, 2.3721e-005
 751.05900,212.72359, 1.4806e-002, 2.4974e-005
 751.55900,212.91469, 1.4818e-002, 2.3322e-005
 752.05900,213.10518, 1.4830e-002, 2.5368e-005
 752.55900,213.29443, 1.4841e-002, 1.9856e-005
 753.05900,213.48308, 1.4851e-002, 2.2610e-005
 753.55900,213.67115, 1.4865e-002, 2.6141e-005
 754.05900,213.85909, 1.4877e-002, 2.0298e-005
 754.55900,214.04743, 1.4887e-002, 1.9688e-005
 755.05900,214.23551, 1.4897e-002, 2.1383e-005
 755.55900,214.42353, 1.4908e-002, 2.2850e-005
 756.05900,214.61141, 1.4920e-002, 2.2595e-005
 756.55900,214.79896, 1.4931e-002, 2.2771e-005
 757.05900,214.98707, 1.4942e-002, 2.1372e-005
 757.55900,215.17526, 1.4954e-002, 2.5197e-005
 758.05900,215.36360, 1.4965e-002, 2.1427e-005
 758.55900,215.55228, 1.4977e-002, 2.1061e-005
 759.05900,215.74139, 1.4988e-002, 2.1906e-005
 759.55900,215.93123, 1.5000e-002, 2.4402e-005
 760.05900,216.12128, 1.5011e-002, 2.3811e-005
 760.55900,216.31156, 1.5022e-002, 2.1693e-005
 761.05900,216.50213, 1.5033e-002, 2.5404e-005
 761.55900,216.69225, 1.5046e-002, 2.3648e-005
 762.05900,216.88261, 1.5057e-002, 2.3607e-005
 762.55900,217.07290, 1.5068e-002, 2.0998e-005
 763.05900,217.26337, 1.5079e-002, 2.1038e-005
 763.55900,217.45398, 1.5091e-002, 2.3610e-005
 764.05900,217.64477, 1.5102e-002, 2.1891e-005
 764.55900,217.83616, 1.5114e-002, 2.4172e-005
 765.05900,218.02738, 1.5124e-002, 2.5556e-005
 765.55900,218.21921, 1.5136e-002, 2.3359e-005
 766.05900,218.41130, 1.5147e-002, 2.2722e-005
 766.55900,218.60315, 1.5159e-002, 2.3732e-005
 767.05900,218.79549, 1.5171e-002, 2.1534e-005
 767.55900,218.98733, 1.5182e-002, 2.0782e-005
 768.05900,219.17913, 1.5193e-002, 2.4715e-005
 768.55900,219.37137, 1.5204e-002, 2.4344e-005
 769.05900,219.56355, 1.5216e-002, 2.4078e-005
 769.55900,219.75631, 1.5228e-002, 2.3106e-005
 770.05900,219.94951, 1.5240e-002, 2.1477e-005
 770.55900,220.14340, 1.5251e-002, 2.1917e-005
 771.05900,220.33704, 1.5262e-002, 2.3421e-005
 771.55900,220.53094, 1.5274e-002, 2.1095e-005
 772.05900,220.72542, 1.5286e-002, 2.5085e-005
 772.55900,220.92105, 1.5298e-002, 2.4614e-005
 773.05900,221.11792, 1.5309e-002, 2.4600e-005
 773.55900,221.31511, 1.5320e-002, 2.5352e-005
 774.05900,221.51183, 1.5331e-002, 2.4575e-005
 774.55900,221.70850, 1.5343e-002, 2.3650e-005
 775.05900,221.90484, 1.5355e-002, 2.2087e-005
 775.55900,222.10073, 1.5366e-002, 2.1557e-005
 776.05900,222.29712, 1.5378e-002, 2.4498e-005
 776.55900,222.49426, 1.5391e-002, 2.4962e-005
 777.05900,222.69356, 1.5403e-002, 2.4055e-005
 777.55900,222.89588, 1.5413e-002, 2.5123e-005
 778.05900,223.10070, 1.5427e-002, 2.3627e-005
 778.55900,223.30795, 1.5438e-002, 2.6934e-005
 779.05900,223.51717, 1.5449e-002, 2.2016e-005
 779.55900,223.72829, 1.5462e-002, 2.1735e-005
 780.05900,223.93992, 1.5474e-002, 2.1420e-005
 780.55900,224.15150, 1.5486e-002, 2.2551e-005
 781.05900,224.36287, 1.5498e-002, 2.4471e-005
 781.55900,224.57391, 1.5510e-002, 2.2558e-005
 782.05900,224.78499, 1.5520e-002, 2.6603e-005
 782.55900,224.99582, 1.5532e-002, 2.1347e-005
 783.05900,225.20590, 1.5544e-002, 2.1740e-005
 783.55900,225.41510, 1.5556e-002, 2.3972e-005
 784.05900,225.62387, 1.5568e-002, 2.4291e-005
 784.55900,225.83222, 1.5578e-002, 2.3653e-005
 785.05900,226.04164, 1.5590e-002, 2.1223e-005
 785.55900,226.25199, 1.5602e-002, 2.4076e-005
 786.05900,226.46415, 1.5614e-002, 2.2408e-005
 786.55900,226.67725, 1.5626e-002, 2.5279e-005
 787.05900,226.89104, 1.5638e-002, 2.1688e-005
 787.55900,227.10617, 1.5648e-002, 2.6088e-005
 788.05900,227.32194, 1.5660e-002, 2.3646e-005
 788.55900,227.53771, 1.5672e-002, 2.2334e-005
 789.05900,227.75274, 1.5684e-002, 2.0211e-005
 789.55900,227.96804, 1.5697e-002, 2.8050e-005
 790.05900,228.18320, 1.5707e-002, 2.1566e-005
 790.55900,228.39887, 1.5720e-002, 2.6896e-005
 791.05900,228.61483, 1.5730e-002, 2.2707e-005
 791.55900,228.83150, 1.5743e-002, 2.0776e-005
 792.05900,229.04813, 1.5755e-002, 2.8074e-005
 792.55900,229.26601, 1.5766e-002, 2.1112e-005
 793.05900,229.48518, 1.5779e-002, 2.2755e-005
 793.55900,229.70601, 1.5791e-002, 2.6545e-005
 794.05900,229.92749, 1.5803e-002, 2.3527e-005
 794.55900,230.14769, 1.5814e-002, 2.7126e-005
 795.05900,230.36741, 1.5825e-002, 2.1094e-005
 795.55900,230.58539, 1.5838e-002, 2.0671e-005
 796.05900,230.80211, 1.5849e-002, 2.0869e-005
 796.55900,231.01695, 1.5861e-002, 2.1416e-005
 797.05900,231.23070, 1.5872e-002, 2.6317e-005
 797.55900,231.44324, 1.5883e-002, 2.4572e-005
 798.05900,231.65450, 1.5896e-002, 2.4983e-005
 798.55900,231.86444, 1.5906e-002, 2.2032e-005
 799.05900,232.07327, 1.5918e-002, 2.0031e-005
 799.55900,232.28213, 1.5930e-002, 2.2730e-005
 800.05900,232.49147, 1.5940e-002, 2.2779e-005
 800.55900,232.70194, 1.5953e-002, 2.3688e-005
 801.05900,232.91345, 1.5965e-002, 2.4808e-005
 801.55900,233.12632, 1.5976e-002, 2.1290e-005
 802.05900,233.34050, 1.5988e-002, 2.1865e-005
 802.55900,233.55575, 1.5999e-002, 2.5081e-005
 803.05900,233.77103, 1.6011e-002, 2.2994e-005
 803.55900,233.98536, 1.6023e-002, 2.1943e-005
 804.05900,234.19765, 1.6035e-002, 2.1045e-005
 804.55900,234.40826, 1.6047e-002, 2.2584e-005
 805.05900,234.61785, 1.6057e-002, 2.6067e-005
 805.55900,234.82649, 1.6070e-002, 2.0958e-005
 806.05900,235.03405, 1.6082e-002, 2.5103e-005
 806.55900,235.24039, 1.6093e-002, 2.1352e-005
 807.05900,235.44555, 1.6105e-002, 2.3265e-005
 807.55900,235.65095, 1.6116e-002, 2.8323e-005
 808.05900,235.85647, 1.6128e-002, 2.0769e-005
 808.55900,236.06357, 1.6140e-002, 2.3985e-005
 809.05900,236.27051, 1.6150e-002, 2.7235e-005
 809.55900,236.47811, 1.6162e-002, 2.1134e-005
 810.05900,236.68654, 1.6175e-002, 2.7906e-005
 810.55900,236.89607, 1.6188e-002, 2.6406e-005
 811.05900,237.10696, 1.6198e-002, 2.5638e-005
 811.55900,237.31851, 1.6211e-002, 2.2119e-005
 812.05900,237.52928, 1.6223e-002, 2.2910e-005
 812.55900,237.73899, 1.6235e-002, 2.6898e-005
 813.05900,237.94708, 1.6245e-002, 2.0728e-005
 813.55900,238.15276, 1.6257e-002, 2.1272e-005
 814.05900,238.35530, 1.6269e-002, 2.1130e-005
 814.55900,238.55485, 1.6279e-002, 2.3636e-005
 815.05900,238.75167, 1.6291e-002, 1.9420e-005
 815.55900,238.94630, 1.6302e-002, 2.6489e-005
 816.05900,239.13942, 1.6313e-002, 2.0572e-005
 816.55900,239.33143, 1.6325e-002, 2.1550e-005
 817.05900,239.52283, 1.6335e-002, 2.7391e-005
 817.55900,239.71465, 1.6347e-002, 2.0188e-005
 818.05900,239.90737, 1.6358e-002, 2.3096e-005
 818.55900,240.10098, 1.6370e-002, 2.1256e-005
 819.05900,240.29420, 1.6382e-002, 2.2111e-005
 819.55900,240.48741, 1.6393e-002, 2.5103e-005
 820.05900,240.67935, 1.6404e-002, 2.1504e-005
 820.55900,240.87108, 1.6416e-002, 2.0728e-005
 821.05900,241.06323, 1.6428e-002, 2.3851e-005
 821.55900,241.25502, 1.6438e-002, 2.2676e-005
 822.05900,241.44692, 1.6450e-002, 2.0980e-005
 822.55900,241.63905, 1.6462e-002, 2.2639e-005
 823.05900,241.83073, 1.6474e-002, 2.5536e-005
 823.55900,242.02288, 1.6484e-002, 2.0935e-005
 824.05900,242.21467, 1.6497e-002, 2.3226e-005
 824.55900,242.40686, 1.6507e-002, 2.2564e-005
 825.05900,242.60004, 1.6519e-002, 2.1834e-005
 825.55900,242.79319, 1.6532e-002, 2.5347e-005
 826.05900,242.98688, 1.6542e-002, 2.7201e-005
 826.55900,243.18005, 1.6554e-002, 2.1204e-005
 827.05900,243.37323, 1.6566e-002, 2.5487e-005
 827.55900,243.56700, 1.6576e-002, 2.1288e-005
 828.05900,243.76169, 1.6589e-002, 2.1573e-005
 828.55900,243.95633, 1.6599e-002, 2.6166e-005
 829.05900,244.15089, 1.6612e-002, 2.1012e-005
 829.55900,244.34436, 1.6623e-002, 2.3863e-005
 830.05900,244.53677, 1.6635e-002, 2.4065e-005
 830.55900,244.72917, 1.6646e-002, 2.1006e-005
 831.05900,244.92136, 1.6659e-002, 2.3514e-005
 831.55900,245.11347, 1.6669e-002, 2.0573e-005
 832.05900,245.30609, 1.6681e-002, 2.1351e-005
 832.55900,245.49826, 1.6692e-002, 2.5344e-005
 833.05900,245.69042, 1.6703e-002, 2.0997e-005
 833.55900,245.88244, 1.6716e-002, 2.6331e-005
 834.05900,246.07434, 1.6726e-002, 2.1654e-005
 834.55900,246.26706, 1.6739e-002, 2.5832e-005
 835.05900,246.45990, 1.6750e-002, 2.3870e-005
 835.55900,246.65374, 1.6762e-002, 2.1206e-005
 836.05900,246.84811, 1.6774e-002, 2.4016e-005
 836.55900,247.04273, 1.6785e-002, 2.0782e-005
 837.05900,247.23729, 1.6795e-002, 2.8023e-005
 837.55900,247.43205, 1.6808e-002, 2.0855e-005
 838.05900,247.62586, 1.6818e-002, 2.4109e-005
 838.55900,247.81750, 1.6830e-002, 1.9875e-005
 839.05900,248.00622, 1.6842e-002, 2.4459e-005
 839.55900,248.19165, 1.6852e-002, 2.0159e-005
 840.05900,248.37494, 1.6864e-002, 2.1018e-005
 840.55900,248.55791, 1.6876e-002, 2.5228e-005
 841.05900,248.74163, 1.6886e-002, 2.1004e-005
 841.55900,248.92764, 1.6899e-002, 2.2862e-005
 842.05900,249.11714, 1.6910e-002, 2.2112e-005
 842.55900,249.30987, 1.6923e-002, 2.3735e-005
 843.05900,249.50614, 1.6936e-002, 2.5522e-005
 843.55900,249.70428, 1.6947e-002, 2.1776e-005
 844.05900,249.90356, 1.6960e-002, 2.6997e-005
 844.55900,250.10298, 1.6970e-002, 2.1699e-005
 845.05900,250.30202, 1.6983e-002, 2.2062e-005
 845.55900,250.50093, 1.6993e-002, 2.0738e-005
 846.05900,250.69947, 1.7006e-002, 2.6090e-005
 846.55900,250.89727, 1.7017e-002, 2.1258e-005
 847.05900,251.09326, 1.7030e-002, 2.7486e-005
 847.55900,251.28777, 1.7040e-002, 2.0443e-005
 848.05900,251.48070, 1.7050e-002, 2.6100e-005
 848.55900,251.67273, 1.7063e-002, 2.0461e-005
 849.05900,251.86501, 1.7074e-002, 2.3145e-005
 849.55900,252.05714, 1.7086e-002, 2.2031e-005
 850.05900,252.25021, 1.7097e-002, 2.3207e-005
 850.55900,252.44348, 1.7110e-002, 2.1992e-005
 851.05900,252.63708, 1.7122e-002, 2.5505e-005
 851.55900,252.83151, 1.7133e-002, 2.1648e-005
 852.05900,253.02709, 1.7146e-002, 2.3993e-005
 852.55900,253.22360, 1.7156e-002, 2.3953e-005
 853.05900,253.42199, 1.7169e-002, 2.1860e-005
 853.55900,253.62092, 1.7180e-002, 2.2511e-005
 854.05900,253.81996, 1.7193e-002, 2.3781e-005
 854.55900,254.01948, 1.7204e-002, 2.2935e-005
 855.05900,254.21876, 1.7216e-002, 2.1626e-005
 855.55900,254.41872, 1.7227e-002, 2.6582e-005
 856.05900,254.61894, 1.7240e-002, 2.1967e-005
 856.55900,254.82129, 1.7251e-002, 2.8258e-005
 857.05900,255.02458, 1.7264e-002, 2.2559e-005
 857.55900,255.22983, 1.7275e-002, 2.2878e-005
 858.05900,255.43631, 1.7289e-002, 2.7759e-005
 858.55900,255.64542, 1.7300e-002, 2.2023e-005
 859.05900,255.85682, 1.7311e-002, 3.0863e-005
 859.55900,256.07184, 1.7325e-002, 2.2640e-005
 860.05900,256.29144, 1.7336e-002, 2.2394e-005
 860.55900,256.51725, 1.7350e-002, 2.4262e-005
 861.05900,256.75165, 1.7362e-002, 2.4088e-005
 861.55900,256.99403, 1.7376e-002, 2.3133e-005
 862.05900,257.24167, 1.7388e-002, 2.4000e-005
 862.55900,257.48828, 1.7402e-002, 3.1217e-005
 863.05900,257.72745, 1.7412e-002, 2.0258e-005
 863.55900,257.95505, 1.7423e-002, 2.5055e-005
 864.05900,258.17041, 1.7435e-002, 2.0215e-005
 864.55900,258.37603, 1.7444e-002, 2.4104e-005
 865.05900,258.57327, 1.7457e-002, 2.0476e-005
 865.55900,258.76503, 1.7468e-002, 2.0944e-005
 866.05900,258.95363, 1.7478e-002, 2.7913e-005
 866.55900,259.14049, 1.7491e-002, 2.1564e-005
 867.05900,259.32777, 1.7502e-002, 2.3071e-005
 867.55900,259.51627, 1.7515e-002, 2.2726e-005
 868.05900,259.70713, 1.7526e-002, 2.2856e-005
 868.55900,259.90158, 1.7540e-002, 2.7685e-005
 869.05900,260.09886, 1.7552e-002, 2.2332e-005
 869.55900,260.29902, 1.7565e-002, 2.6131e-005
 870.05900,260.49990, 1.7576e-002, 2.2045e-005
 870.55900,260.70106, 1.7587e-002, 2.7286e-005
 871.05900,260.90150, 1.7600e-002, 2.1273e-005
 871.55900,261.10027, 1.7610e-002, 2.6920e-005
 872.05900,261.29733, 1.7623e-002, 2.0776e-005
 872.55900,261.49231, 1.7633e-002, 2.1905e-005
 873.05900,261.68652, 1.7646e-002, 2.3795e-005
 873.55900,261.88002, 1.7657e-002, 2.0615e-005
 874.05900,262.07302, 1.7667e-002, 2.9565e-005
 874.55900,262.26619, 1.7681e-002, 2.1480e-005
 875.05900,262.45997, 1.7692e-002, 2.1307e-005
 875.55900,262.65459, 1.7705e-002, 2.9649e-005
 876.05900,262.85070, 1.7716e-002, 2.1015e-005
 876.55900,263.04720, 1.7726e-002, 2.3324e-005
 877.05900,263.24432, 1.7740e-002, 2.2873e-005
 877.55900,263.44156, 1.7751e-002, 2.0991e-005
 878.05900,263.63855, 1.7762e-002, 2.5469e-005
 878.55900,263.83589, 1.7775e-002, 2.1548e-005
 879.05900,264.03325, 1.7785e-002, 2.0883e-005
 879.55900,264.23118, 1.7798e-002, 2.2966e-005
 880.05900,264.42964, 1.7809e-002, 2.3822e-005
 880.55900,264.62794, 1.7822e-002, 2.5431e-005
 881.05900,264.82653, 1.7835e-002, 2.2051e-005
 881.55900,265.02497, 1.7846e-002, 2.1403e-005
 882.05900,265.22503, 1.7856e-002, 2.1550e-005
 882.55900,265.42998, 1.7871e-002, 3.0360e-005
 883.05900,265.63645, 1.7880e-002, 2.1003e-005
 883.55900,265.84533, 1.7892e-002, 3.1374e-005
 884.05900,266.05093, 1.7906e-002, 2.2275e-005
 884.55900,266.25624, 1.7917e-002, 2.1751e-005
 885.05900,266.46122, 1.7930e-002, 2.6825e-005
 885.55900,266.66574, 1.7940e-002, 2.1528e-005
 886.05900,266.87028, 1.7951e-002, 2.1767e-005
 886.55900,267.07556, 1.7964e-002, 2.3413e-005
 887.05900,267.28193, 1.7975e-002, 2.3075e-005
 887.55900,267.48648, 1.7988e-002, 2.0987e-005
 888.05900,267.68839, 1.7998e-002, 2.0608e-005
 888.55900,267.88724, 1.8009e-002, 2.9165e-005
 889.05900,268.08323, 1.8022e-002, 2.0342e-005
 889.55900,268.27738, 1.8032e-002, 2.0153e-005
 890.05900,268.46940, 1.8044e-002, 3.0198e-005
 890.55900,268.65868, 1.8056e-002, 2.0618e-005
 891.05900,268.84576, 1.8066e-002, 2.1082e-005
 891.55900,269.03082, 1.8080e-002, 2.3156e-005
 892.05900,269.21508, 1.8090e-002, 2.1239e-005
 892.55900,269.39932, 1.8103e-002, 2.8762e-005
 893.05900,269.58441, 1.8114e-002, 2.1397e-005
 893.55900,269.77085, 1.8127e-002, 2.6424e-005
 894.05900,269.95868, 1.8138e-002, 2.2380e-005
 894.55900,270.14810, 1.8149e-002, 2.1852e-005
 895.05900,270.33860, 1.8163e-002, 3.3341e-005
 895.55900,270.53171, 1.8174e-002, 2.1406e-005
 896.05900,270.72685, 1.8185e-002, 2.2708e-005
 896.55900,270.92137, 1.8199e-002, 3.1897e-005
 897.05900,271.11423, 1.8210e-002, 2.0583e-005
 897.55900,271.30382, 1.8220e-002, 2.0733e-005
 898.05900,271.49146, 1.8233e-002, 2.2863e-005
 898.55900,271.67930, 1.8243e-002, 2.2587e-005
 899.05900,271.86823, 1.8256e-002, 2.2736e-005
 899.55900,272.06053, 1.8268e-002, 2.1837e-005
 900.05900,272.25759, 1.8281e-002, 3.4492e-005
 900.55900,272.45998, 1.8294e-002, 2.2955e-005
 901.05900,272.66865, 1.8305e-002, 2.2711e-005
 901.55900,272.88305, 1.8320e-002, 3.4866e-005
 902.05900,273.10399, 1.8332e-002, 2.4406e-005
 902.55900,273.33010, 1.8344e-002, 2.8048e-005
 903.05900,273.55788, 1.8358e-002, 2.2687e-005
 903.55900,273.78351, 1.8369e-002, 2.1190e-005
 904.05900,274.00368, 1.8380e-002, 2.2594e-005
 904.55900,274.21767, 1.8392e-002, 2.1240e-005
 905.05900,274.42678, 1.8403e-002, 2.0282e-005
 905.55900,274.63380, 1.8413e-002, 2.5075e-005
 906.05900,274.84207, 1.8427e-002, 2.2017e-005
 906.55900,275.05436, 1.8439e-002, 2.2291e-005
 907.05900,275.27348, 1.8453e-002, 2.5820e-005
 907.55900,275.50044, 1.8465e-002, 2.3565e-005
 908.05900,275.74012, 1.8478e-002, 2.5826e-005
 908.55900,275.99905, 1.8495e-002, 3.9269e-005
 909.05900,276.28943, 1.8509e-002, 2.7933e-005
 909.55900,276.61031, 1.8522e-002, 2.7439e-005
 910.05900,276.93041, 1.8537e-002, 2.3819e-005
 910.55900,277.22116, 1.8547e-002, 1.9624e-005
 911.05900,277.48113, 1.8556e-002, 1.8387e-005
 911.55900,277.71711, 1.8570e-002, 2.8879e-005
 912.05900,277.93469, 1.8579e-002, 1.8227e-005
 912.55900,278.13941, 1.8589e-002, 1.8809e-005
 913.05900,278.33428, 1.8598e-002, 2.9504e-005
 913.55900,278.52225, 1.8611e-002, 1.9339e-005
 914.05900,278.70537, 1.8621e-002, 2.0721e-005
 914.55900,278.88610, 1.8635e-002, 2.3746e-005
 915.05900,279.06694, 1.8646e-002, 2.2181e-005
 915.55900,279.24893, 1.8657e-002, 2.6097e-005
 916.05900,279.43258, 1.8672e-002, 2.3102e-005
 916.55900,279.61736, 1.8683e-002, 2.2343e-005
 917.05900,279.80306, 1.8698e-002, 2.7009e-005
 917.55900,279.99002, 1.8709e-002, 2.3242e-005
 918.05900,280.17808, 1.8721e-002, 2.2423e-005
 918.55900,280.36828, 1.8735e-002, 3.1490e-005
 919.05900,280.55998, 1.8746e-002, 2.2693e-005
 919.55900,280.75182, 1.8758e-002, 2.2297e-005
 920.05900,280.94258, 1.8771e-002, 3.0064e-005
 920.55900,281.13192, 1.8782e-002, 2.0901e-005
 921.05900,281.32112, 1.8793e-002, 2.2660e-005
 921.55900,281.51140, 1.8807e-002, 3.4653e-005
 922.05900,281.70244, 1.8819e-002, 2.1592e-005
 922.55900,281.89285, 1.8830e-002, 2.2229e-005
 923.05900,282.08230, 1.8844e-002, 2.2485e-005
 923.55900,282.27169, 1.8855e-002, 2.1112e-005
 924.05900,282.46222, 1.8866e-002, 2.8825e-005
 924.55900,282.65797, 1.8880e-002, 2.3338e-005
 925.05900,282.85729, 1.8891e-002, 2.4533e-005
 925.55900,283.05945, 1.8905e-002, 3.0461e-005
 926.05900,283.26303, 1.8920e-002, 2.1915e-005
 926.55900,283.46564, 1.8931e-002, 2.2516e-005
 927.05900,283.66821, 1.8942e-002, 2.3200e-005
 927.55900,283.86927, 1.8956e-002, 2.1073e-005
 928.05900,284.06734, 1.8969e-002, 2.9595e-005
 928.55900,284.26289, 1.8979e-002, 2.1319e-005
 929.05900,284.45687, 1.8994e-002, 2.3872e-005
 929.55900,284.65092, 1.9005e-002, 2.2160e-005
 930.05900,284.84600, 1.9016e-002, 2.3465e-005
 930.55900,285.04298, 1.9027e-002, 2.7448e-005
 931.05900,285.24140, 1.9046e-002, 2.3647e-005
 931.55900,285.44041, 1.9057e-002, 2.1257e-005
 932.05900,285.63906, 1.9068e-002, 2.1697e-005
 932.55900,285.83600, 1.9078e-002, 2.1039e-005
 933.05900,286.03153, 1.9089e-002, 2.1111e-005
 933.55900,286.22546, 1.9100e-002, 2.0911e-005
 934.05900,286.41813, 1.9110e-002, 2.5277e-005
 934.55900,286.60972, 1.9122e-002, 2.1976e-005
 935.05900,286.80065, 1.9134e-002, 2.1812e-005
 935.55900,286.99075, 1.9145e-002, 2.1031e-005
 936.05900,287.18028, 1.9157e-002, 2.2177e-005
 936.55900,287.36945, 1.9168e-002, 2.5451e-005
 937.05900,287.55904, 1.9181e-002, 2.1431e-005
 937.55900,287.74952, 1.9192e-002, 2.2106e-005
 938.05900,287.94077, 1.9205e-002, 2.8911e-005
 938.55900,288.13255, 1.9216e-002, 2.1778e-005
 939.05900,288.32395, 1.9226e-002, 2.1013e-005
 939.55900,288.51502, 1.9240e-002, 2.7708e-005
 940.05900,288.70533, 1.9251e-002, 2.1706e-005
 940.55900,288.89428, 1.9261e-002, 2.6949e-005
 941.05900,289.08291, 1.9275e-002, 2.0572e-005
 941.55900,289.27069, 1.9285e-002, 2.1719e-005
 942.05900,289.45804, 1.9295e-002, 2.2204e-005
 942.55900,289.64581, 1.9309e-002, 2.2007e-005
 943.05900,289.83274, 1.9320e-002, 2.1397e-005
 943.55900,290.01881, 1.9330e-002, 2.2432e-005
 944.05900,290.20458, 1.9344e-002, 2.2283e-005
 944.55900,290.38994, 1.9354e-002, 2.2677e-005
 945.05900,290.57523, 1.9368e-002, 2.1459e-005
 945.55900,290.76107, 1.9379e-002, 2.1622e-005
 946.05900,290.94772, 1.9392e-002, 3.0364e-005
 946.55900,291.13539, 1.9403e-002, 2.2643e-005
 947.05900,291.32418, 1.9414e-002, 2.2660e-005
 947.55900,291.51263, 1.9428e-002, 2.2512e-005
 948.05900,291.70004, 1.9438e-002, 2.1292e-005
 948.55900,291.88589, 1.9449e-002, 2.6339e-005
 949.05900,292.07050, 1.9461e-002, 2.1008e-005
 949.55900,292.25427, 1.9472e-002, 2.1960e-005
 950.05900,292.43680, 1.9486e-002, 2.3774e-005
 950.55900,292.61846, 1.9497e-002, 2.1611e-005
 951.05900,292.79977, 1.9510e-002, 2.9702e-005
 951.55900,292.98120, 1.9521e-002, 2.1547e-005
 952.05900,293.16369, 1.9532e-002, 2.1650e-005
 952.55900,293.34831, 1.9546e-002, 3.1922e-005
 953.05900,293.53506, 1.9557e-002, 2.3028e-005
 953.55900,293.72337, 1.9568e-002, 2.1787e-005
 954.05900,293.91205, 1.9582e-002, 2.8860e-005
 954.55900,294.10020, 1.9593e-002, 2.0858e-005
 955.05900,294.28902, 1.9605e-002, 3.1313e-005
 955.55900,294.47851, 1.9617e-002, 2.2492e-005
 956.05900,294.66951, 1.9628e-002, 2.2403e-005
 956.55900,294.86251, 1.9643e-002, 2.9122e-005
 957.05900,295.05528, 1.9653e-002, 2.2224e-005
 957.55900,295.24740, 1.9664e-002, 2.9530e-005
 958.05900,295.43657, 1.9677e-002, 2.1058e-005
 958.55900,295.62204, 1.9688e-002, 2.3494e-005
 959.05900,295.80491, 1.9701e-002, 2.0702e-005
 959.55900,295.98662, 1.9711e-002, 2.3020e-005
 960.05900,296.16826, 1.9724e-002, 2.3112e-005
 960.55900,296.35149, 1.9736e-002, 2.2072e-005
 961.05900,296.53791, 1.9748e-002, 3.3620e-005
 961.55900,296.72838, 1.9762e-002, 2.2771e-005
 962.05900,296.92289, 1.9773e-002, 2.3955e-005
 962.55900,297.12120, 1.9785e-002, 2.8518e-005
 963.05900,297.32240, 1.9799e-002, 2.3136e-005
 963.55900,297.52697, 1.9813e-002, 3.0873e-005
 964.05900,297.73838, 1.9825e-002, 2.4210e-005
 964.55900,297.96000, 1.9838e-002, 2.8862e-005
 965.05900,298.19174, 1.9854e-002, 2.5580e-005
 965.55900,298.42674, 1.9865e-002, 2.2714e-005
 966.05900,298.65564, 1.9876e-002, 2.2154e-005
 966.55900,298.87343, 1.9887e-002, 3.2775e-005
 967.05900,299.07964, 1.9900e-002, 1.8784e-005
 967.55900,299.27658, 1.9910e-002, 2.1547e-005
 968.05900,299.46589, 1.9920e-002, 3.1442e-005
 968.55900,299.65102, 1.9935e-002, 2.0601e-005
 969.05900,299.83444, 1.9945e-002, 2.1452e-005
 969.55900,300.01838, 1.9959e-002, 2.6832e-005
 970.05900,300.20511, 1.9971e-002, 2.2111e-005
 970.55900,300.39483, 1.9982e-002, 2.3981e-005
 971.05900,300.58611, 1.9997e-002, 2.3099e-005
 971.55900,300.77636, 2.0008e-002, 2.1689e-005
 972.05900,300.96386, 2.0021e-002, 2.3626e-005
 972.55900,301.14517, 2.0031e-002, 2.0323e-005
 973.05900,301.31903, 2.0041e-002, 1.9458e-005
 973.55900,301.48606, 2.0054e-002, 2.6552e-005
 974.05900,301.64716, 2.0064e-002, 1.8947e-005
 974.55900,301.80544, 2.0075e-002, 2.7362e-005
 975.05900,301.96293, 2.0087e-002, 2.1088e-005
 975.55900,302.12117, 2.0098e-002, 2.9167e-005
 976.05900,302.28142, 2.0112e-002, 2.2362e-005
 976.55900,302.44493, 2.0123e-002, 3.0050e-005
 977.05900,302.61243, 2.0138e-002, 2.3058e-005
 977.55900,302.78671, 2.0149e-002, 2.3890e-005
 978.05900,302.97152, 2.0165e-002, 2.7000e-005
 978.55900,303.16932, 2.0177e-002, 2.5944e-005
 979.05900,303.38030, 2.0194e-002, 3.5898e-005
 979.55900,303.59443, 2.0205e-002, 2.1783e-005
 980.05900,303.80062, 2.0215e-002, 2.7763e-005
 980.55900,303.99384, 2.0227e-002, 1.7758e-005
 981.05900,304.17634, 2.0236e-002, 1.9431e-005
 981.55900,304.35252, 2.0249e-002, 2.2821e-005
 982.05900,304.52572, 2.0259e-002, 2.0836e-005
 982.55900,304.69953, 2.0270e-002, 2.1947e-005
 983.05900,304.87651, 2.0285e-002, 3.3458e-005
 983.55900,305.05821, 2.0297e-002, 2.3573e-005
 984.05900,305.24491, 2.0308e-002, 2.4413e-005
 984.55900,305.43542, 2.0324e-002, 3.2783e-005
 985.05900,305.62804, 2.0335e-002, 2.2396e-005
 985.55900,305.82100, 2.0346e-002, 2.3131e-005
 986.05900,306.01138, 2.0359e-002, 2.1443e-005
 986.55900,306.19732, 2.0369e-002, 1.9936e-005
 987.05900,306.37940, 2.0378e-002, 2.8516e-005
 987.55900,306.55848, 2.0392e-002, 2.0727e-005
 988.05900,306.73773, 2.0403e-002, 2.2430e-005
 988.55900,306.91964, 2.0414e-002, 3.1368e-005
 989.05900,307.10565, 2.0429e-002, 2.2937e-005
 989.55900,307.29648, 2.0441e-002, 2.3436e-005
 990.05900,307.49211, 2.0456e-002, 2.5785e-005
 990.55900,307.69250, 2.0467e-002, 2.2228e-005
 991.05900,307.89438, 2.0479e-002, 3.3042e-005
 991.55900,308.09516, 2.0491e-002, 2.1595e-005
 992.05900,308.29294, 2.0502e-002, 2.1839e-005
 992.55900,308.48625, 2.0516e-002, 2.3010e-005
 993.05900,308.67600, 2.0526e-002, 1.9969e-005
 993.55900,308.86192, 2.0536e-002, 2.6619e-005
 994.05900,309.04505, 2.0550e-002, 2.0631e-005
 994.55900,309.22718, 2.0560e-002, 2.0269e-005
 995.05900,309.40946, 2.0570e-002, 3.3467e-005
 995.55900,309.59282, 2.0586e-002, 2.1541e-005
 996.05900,309.77644, 2.0596e-002, 3.1086e-005
 996.55900,309.96016, 2.0610e-002, 2.1598e-005
 997.05900,310.14395, 2.0621e-002, 2.1199e-005
 997.55900,310.32812, 2.0632e-002, 2.8548e-005
 998.05900,310.51377, 2.0647e-002, 2.2713e-005
 998.55900,310.70055, 2.0658e-002, 2.1618e-005
 999.05900,310.88595, 2.0668e-002, 2.9020e-005
 999.55900,311.06879, 2.0682e-002, 2.0083e-005
1000.05900,311.24925, 2.0692e-002, 2.0327e-005
1000.55900,311.42933, 2.0703e-002, 2.5999e-005
1001.05900,311.61134, 2.0718e-002, 2.3993e-005
1001.55900,311.79769, 2.0730e-002, 2.4611e-005
1002.05900,311.98772, 2.0744e-002, 2.3912e-005
1002.55900,312.17724, 2.0755e-002, 2.0908e-005
1003.05900,312.36482, 2.0766e-002, 2.0711e-005
1003.55900,312.54800, 2.0777e-002, 3.7638e-005
1004.05900,312.72781, 2.0792e-002, 2.1157e-005
1004.55900,312.90719, 2.0802e-002, 2.0959e-005
1005.05900,313.08650, 2.0813e-002, 2.3096e-005
1005.55900,313.26681, 2.0828e-002, 2.4785e-005
1006.05900,313.44700, 2.0839e-002, 2.3670e-005
1006.55900,313.62605, 2.0852e-002, 2.2380e-005
1007.05900,313.80502, 2.0863e-002, 2.1205e-005
1007.55900,313.98406, 2.0877e-002, 3.1551e-005
1008.05900,314.16387, 2.0895e-002, 3.8862e-005
1008.55900,314.34438, 2.0905e-002, 2.2544e-005
1009.05900,314.52482, 2.0916e-002, 2.0426e-005

