#EXPORTTYPE:           ,DATA ALL                                                        
#FILE:                 ,fmtl010Crun1.ngb-sle                                            
#FORMAT:               ,NETZSCH5                                                        
#FTYPE:                ,ANSI                                                            
#IDENTITY:             ,fmt short                                                       
#DECIMAL:              ,POINT                                                           
#SEPARATOR:            ,COMMA                                                           
#MTYPE:                ,DIL                                                             
#INSTRUMENT:           ,NETZSCH DIL 402C                                                
#PROJECT:              ,feldspar                                                        
#DATE/TIME:            ,8/21/2019 9:53:35 AM (UTC-5)                                    
#CORR. FILE:           ,                                                                
#TEMPCAL:              ,TCALZERO.TMX                                                    
#LABORATORY:           ,Mineral Physics                                                 
#OPERATOR:             ,PAG                                                             
#REMARK:               ,bare, norm start, for short plageioclase, fmt short probably 010
#SAMPLE:               ,fmt 3rd orientation                                             
#SAMPLE LENGTH /mm:    ,8.776                                                           
#MATERIAL:             ,sapphire stnd                                                   
#MEASMODE:             ,Standard Expansion                                              
#PURGE GAS 1:          ,ARGON                                                           
#FLOW RATE 1 /(ml/min):,75                                                              
#M.RANGE /µm:          ,500                                                             
#CORR. CODE:           ,010                                                             
#RANGE:                ,20.0°C/3.0(K/min)/1010.0°C                                      
#SEGMENT:              ,S1/1                                                            
#SEG. 1:               ,20.0°C/3.0(K/min)/1010.0°C                                      

##Temp./°C,Time/min,dL/Lo
  22.55400,  0.00000, 2.2540e-005
  23.05400,  4.46260, 5.5262e-007
  23.55400,  4.87844,-1.0073e-005
  24.05400,  5.15461,-1.9112e-005
  24.55400,  5.37597,-2.6883e-005
  25.05400,  5.56571,-3.3662e-005
  25.55400,  5.73550,-3.9907e-005
  26.05400,  5.89117,-4.5797e-005
  26.55400,  6.03567,-5.0770e-005
  27.05400,  6.17217,-5.5165e-005
  27.55400,  6.30227,-5.9795e-005
  28.05400,  6.42751,-6.3243e-005
  28.55400,  6.54825,-6.6485e-005
  29.05400,  6.66528,-6.9793e-005
  29.55400,  6.77958,-7.2492e-005
  30.05400,  6.89169,-7.4676e-005
  30.55400,  7.00237,-7.6570e-005
  31.05400,  7.11155,-7.8400e-005
  31.55400,  7.21955,-7.9426e-005
  32.05400,  7.32656,-8.0780e-005
  32.55400,  7.43246,-8.1333e-005
  33.05400,  7.53752,-8.1863e-005
  33.55400,  7.64201,-8.1602e-005
  34.05400,  7.74574,-8.1478e-005
  34.55400,  7.84897,-8.0933e-005
  35.05400,  7.95194,-8.0143e-005
  35.55400,  8.05495,-7.9813e-005
  36.05400,  8.15814,-7.7966e-005
  36.55400,  8.26129,-7.6894e-005
  37.05400,  8.36443,-7.5154e-005
  37.55400,  8.46723,-7.3682e-005
  38.05400,  8.57032,-7.1378e-005
  38.55400,  8.67313,-6.8935e-005
  39.05400,  8.77597,-6.7097e-005
  39.55400,  8.87892,-6.4413e-005
  40.05400,  8.98186,-6.1711e-005
  40.55400,  9.08473,-5.8458e-005
  41.05400,  9.18767,-5.5921e-005
  41.55400,  9.29026,-5.2799e-005
  42.05400,  9.39294,-4.9522e-005
  42.55400,  9.49546,-4.6321e-005
  43.05400,  9.59780,-4.2873e-005
  43.55400,  9.69993,-3.9634e-005
  44.05400,  9.80196,-3.6063e-005
  44.55400,  9.90369,-3.2667e-005
  45.05400, 10.00526,-2.9012e-005
  45.55400, 10.10675,-2.5500e-005
  46.05400, 10.20820,-2.1848e-005
  46.55400, 10.30908,-1.8352e-005
  47.05400, 10.40961,-1.4666e-005
  47.55400, 10.50970,-1.0755e-005
  48.05400, 10.60944,-6.7847e-006
  48.55400, 10.70885,-2.9476e-006
  49.05400, 10.80762, 9.3179e-007
  49.55400, 10.90581, 4.6976e-006
  50.05400, 11.00362, 8.6950e-006
  50.55400, 11.10079, 1.3292e-005
  51.05400, 11.19761, 1.7081e-005
  51.55400, 11.29393, 2.1107e-005
  52.05400, 11.38997, 2.5589e-005
  52.55400, 11.48607, 2.9728e-005
  53.05400, 11.58195, 3.3933e-005
  53.55400, 11.67741, 3.7791e-005
  54.05400, 11.77310, 4.2025e-005
  54.55400, 11.86863, 4.6583e-005
  55.05400, 11.96398, 5.1162e-005
  55.55400, 12.05928, 5.5498e-005
  56.05400, 12.15431, 6.0272e-005
  56.55400, 12.24900, 6.4568e-005
  57.05400, 12.34370, 6.9447e-005
  57.55400, 12.43817, 7.3859e-005
  58.05400, 12.53258, 7.8799e-005
  58.55400, 12.62678, 8.4151e-005
  59.05400, 12.72081, 8.8615e-005
  59.55400, 12.81481, 9.3550e-005
  60.05400, 12.90879, 9.8328e-005
  60.55400, 13.00271, 1.0344e-004
  61.05400, 13.09653, 1.0846e-004
  61.55400, 13.19024, 1.1316e-004
  62.05400, 13.28416, 1.1874e-004
  62.55400, 13.37831, 1.2418e-004
  63.05400, 13.47237, 1.2947e-004
  63.55400, 13.56639, 1.3477e-004
  64.05400, 13.66058, 1.4013e-004
  64.55400, 13.75466, 1.4575e-004
  65.05400, 13.84868, 1.5075e-004
  65.55400, 13.94273, 1.5617e-004
  66.05400, 14.03644, 1.6237e-004
  66.55400, 14.12995, 1.6742e-004
  67.05400, 14.22343, 1.7360e-004
  67.55400, 14.31685, 1.7926e-004
  68.05400, 14.41029, 1.8498e-004
  68.55400, 14.50389, 1.9082e-004
  69.05400, 14.59761, 1.9704e-004
  69.55400, 14.69132, 2.0305e-004
  70.05400, 14.78537, 2.0894e-004
  70.55400, 14.87946, 2.1488e-004
  71.05400, 14.97405, 2.2051e-004
  71.55400, 15.06882, 2.2678e-004
  72.05400, 15.16366, 2.3297e-004
  72.55400, 15.25856, 2.3902e-004
  73.05400, 15.35345, 2.4529e-004
  73.55400, 15.44828, 2.5138e-004
  74.05400, 15.54328, 2.5776e-004
  74.55400, 15.63821, 2.6402e-004
  75.05400, 15.73294, 2.7018e-004
  75.55400, 15.82767, 2.7636e-004
  76.05400, 15.92249, 2.8262e-004
  76.55400, 16.01746, 2.8941e-004
  77.05400, 16.11252, 2.9554e-004
  77.55400, 16.20767, 3.0200e-004
  78.05400, 16.30287, 3.0835e-004
  78.55400, 16.39825, 3.1478e-004
  79.05400, 16.49376, 3.2129e-004
  79.55400, 16.58927, 3.2779e-004
  80.05400, 16.68478, 3.3408e-004
  80.55400, 16.78048, 3.4097e-004
  81.05400, 16.87626, 3.4709e-004
  81.55400, 16.97200, 3.5409e-004
  82.05400, 17.06791, 3.6053e-004
  82.55400, 17.16402, 3.6719e-004
  83.05400, 17.26011, 3.7375e-004
  83.55400, 17.35640, 3.8074e-004
  84.05400, 17.45272, 3.8695e-004
  84.55400, 17.54913, 3.9379e-004
  85.05400, 17.64572, 4.0020e-004
  85.55400, 17.74243, 4.0733e-004
  86.05400, 17.83922, 4.1374e-004
  86.55400, 17.93604, 4.2063e-004
  87.05400, 18.03297, 4.2716e-004
  87.55400, 18.13013, 4.3383e-004
  88.05400, 18.22725, 4.4094e-004
  88.55400, 18.32478, 4.4825e-004
  89.05400, 18.42241, 4.5485e-004
  89.55400, 18.52018, 4.6179e-004
  90.05400, 18.61794, 4.6835e-004
  90.55400, 18.71565, 4.7602e-004
  91.05400, 18.81346, 4.8270e-004
  91.55400, 18.91153, 4.8943e-004
  92.05400, 19.00931, 4.9644e-004
  92.55400, 19.10705, 5.0327e-004
  93.05400, 19.20483, 5.1051e-004
  93.55400, 19.30262, 5.1730e-004
  94.05400, 19.40065, 5.2433e-004
  94.55400, 19.49889, 5.3123e-004
  95.05400, 19.59725, 5.3827e-004
  95.55400, 19.69562, 5.4521e-004
  96.05400, 19.79424, 5.5236e-004
  96.55400, 19.89296, 5.5968e-004
  97.05400, 19.99197, 5.6673e-004
  97.55400, 20.09106, 5.7362e-004
  98.05400, 20.19002, 5.8099e-004
  98.55400, 20.28899, 5.8821e-004
  99.05400, 20.38819, 5.9507e-004
  99.55400, 20.48755, 6.0255e-004
 100.05400, 20.58691, 6.0952e-004
 100.55400, 20.68632, 6.1624e-004
 101.05400, 20.78594, 6.2358e-004
 101.55400, 20.88568, 6.3084e-004
 102.05400, 20.98570, 6.3795e-004
 102.55400, 21.08591, 6.4527e-004
 103.05400, 21.18623, 6.5242e-004
 103.55400, 21.28682, 6.5917e-004
 104.05400, 21.38746, 6.6657e-004
 104.55400, 21.48798, 6.7368e-004
 105.05400, 21.58869, 6.8108e-004
 105.55400, 21.68940, 6.8828e-004
 106.05400, 21.79005, 6.9512e-004
 106.55400, 21.89082, 7.0259e-004
 107.05400, 21.99141, 7.0976e-004
 107.55400, 22.09214, 7.1697e-004
 108.05400, 22.19298, 7.2410e-004
 108.55400, 22.29386, 7.3143e-004
 109.05400, 22.39476, 7.3834e-004
 109.55400, 22.49576, 7.4592e-004
 110.05400, 22.59665, 7.5263e-004
 110.55400, 22.69769, 7.6043e-004
 111.05400, 22.79867, 7.6748e-004
 111.55400, 22.89975, 7.7466e-004
 112.05400, 23.00086, 7.8195e-004
 112.55400, 23.10179, 7.8930e-004
 113.05400, 23.20285, 7.9607e-004
 113.55400, 23.30409, 8.0345e-004
 114.05400, 23.40540, 8.1094e-004
 114.55400, 23.50677, 8.1827e-004
 115.05400, 23.60826, 8.2530e-004
 115.55400, 23.70989, 8.3259e-004
 116.05400, 23.81184, 8.3988e-004
 116.55400, 23.91385, 8.4758e-004
 117.05400, 24.01603, 8.5473e-004
 117.55400, 24.11846, 8.6183e-004
 118.05400, 24.22087, 8.6907e-004
 118.55400, 24.32342, 8.7635e-004
 119.05400, 24.42613, 8.8396e-004
 119.55400, 24.52885, 8.9140e-004
 120.05400, 24.63174, 8.9892e-004
 120.55400, 24.73449, 9.0622e-004
 121.05400, 24.83718, 9.1319e-004
 121.55400, 24.94018, 9.2092e-004
 122.05400, 25.04304, 9.2838e-004
 122.55400, 25.14611, 9.3556e-004
 123.05400, 25.24909, 9.4321e-004
 123.55400, 25.35216, 9.5052e-004
 124.05400, 25.45532, 9.5761e-004
 124.55400, 25.55860, 9.6521e-004
 125.05400, 25.66182, 9.7247e-004
 125.55400, 25.76515, 9.7984e-004
 126.05400, 25.86836, 9.8749e-004
 126.55400, 25.97165, 9.9484e-004
 127.05400, 26.07497, 1.0021e-003
 127.55400, 26.17846, 1.0097e-003
 128.05400, 26.28217, 1.0173e-003
 128.55400, 26.38598, 1.0246e-003
 129.05400, 26.49009, 1.0320e-003
 129.55400, 26.59450, 1.0394e-003
 130.05400, 26.69924, 1.0473e-003
 130.55400, 26.80407, 1.0542e-003
 131.05400, 26.90879, 1.0611e-003
 131.55400, 27.01356, 1.0686e-003
 132.05400, 27.11797, 1.0767e-003
 132.55400, 27.22223, 1.0837e-003
 133.05400, 27.32650, 1.0914e-003
 133.55400, 27.43072, 1.0987e-003
 134.05400, 27.53497, 1.1061e-003
 134.55400, 27.63938, 1.1139e-003
 135.05400, 27.74363, 1.1212e-003
 135.55400, 27.84837, 1.1286e-003
 136.05400, 27.95304, 1.1363e-003
 136.55400, 28.05769, 1.1435e-003
 137.05400, 28.16253, 1.1510e-003
 137.55400, 28.26747, 1.1585e-003
 138.05400, 28.37236, 1.1659e-003
 138.55400, 28.47749, 1.1733e-003
 139.05400, 28.58262, 1.1805e-003
 139.55400, 28.68792, 1.1882e-003
 140.05400, 28.79338, 1.1956e-003
 140.55400, 28.89874, 1.2031e-003
 141.05400, 29.00400, 1.2104e-003
 141.55400, 29.10926, 1.2182e-003
 142.05400, 29.21450, 1.2257e-003
 142.55400, 29.31988, 1.2331e-003
 143.05400, 29.42534, 1.2409e-003
 143.55400, 29.53106, 1.2483e-003
 144.05400, 29.63654, 1.2558e-003
 144.55400, 29.74206, 1.2634e-003
 145.05400, 29.84794, 1.2706e-003
 145.55400, 29.95403, 1.2780e-003
 146.05400, 30.06014, 1.2858e-003
 146.55400, 30.16633, 1.2936e-003
 147.05400, 30.27231, 1.3012e-003
 147.55400, 30.37871, 1.3081e-003
 148.05400, 30.48520, 1.3159e-003
 148.55400, 30.59167, 1.3234e-003
 149.05400, 30.69809, 1.3307e-003
 149.55400, 30.80454, 1.3383e-003
 150.05400, 30.91108, 1.3459e-003
 150.55400, 31.01752, 1.3534e-003
 151.05400, 31.12397, 1.3605e-003
 151.55400, 31.23039, 1.3684e-003
 152.05400, 31.33700, 1.3760e-003
 152.55400, 31.44366, 1.3840e-003
 153.05400, 31.55022, 1.3915e-003
 153.55400, 31.65695, 1.3988e-003
 154.05400, 31.76393, 1.4063e-003
 154.55400, 31.87114, 1.4140e-003
 155.05400, 31.97842, 1.4213e-003
 155.55400, 32.08573, 1.4291e-003
 156.05400, 32.19312, 1.4365e-003
 156.55400, 32.30071, 1.4441e-003
 157.05400, 32.40831, 1.4517e-003
 157.55400, 32.51599, 1.4594e-003
 158.05400, 32.62353, 1.4673e-003
 158.55400, 32.73122, 1.4746e-003
 159.05400, 32.83898, 1.4823e-003
 159.55400, 32.94676, 1.4901e-003
 160.05400, 33.05472, 1.4977e-003
 160.55400, 33.16276, 1.5053e-003
 161.05400, 33.27110, 1.5127e-003
 161.55400, 33.37948, 1.5204e-003
 162.05400, 33.48792, 1.5280e-003
 162.55400, 33.59620, 1.5353e-003
 163.05400, 33.70433, 1.5433e-003
 163.55400, 33.81275, 1.5509e-003
 164.05400, 33.92089, 1.5584e-003
 164.55400, 34.02889, 1.5658e-003
 165.05400, 34.13697, 1.5735e-003
 165.55400, 34.24514, 1.5811e-003
 166.05400, 34.35370, 1.5890e-003
 166.55400, 34.46226, 1.5966e-003
 167.05400, 34.57094, 1.6038e-003
 167.55400, 34.67978, 1.6116e-003
 168.05400, 34.78911, 1.6192e-003
 168.55400, 34.89865, 1.6270e-003
 169.05400, 35.00840, 1.6347e-003
 169.55400, 35.11801, 1.6424e-003
 170.05400, 35.22763, 1.6501e-003
 170.55400, 35.33737, 1.6579e-003
 171.05400, 35.44711, 1.6654e-003
 171.55400, 35.55656, 1.6729e-003
 172.05400, 35.66569, 1.6803e-003
 172.55400, 35.77478, 1.6885e-003
 173.05400, 35.88413, 1.6960e-003
 173.55400, 35.99332, 1.7036e-003
 174.05400, 36.10255, 1.7113e-003
 174.55400, 36.21185, 1.7192e-003
 175.05400, 36.32132, 1.7270e-003
 175.55400, 36.43123, 1.7347e-003
 176.05400, 36.54125, 1.7421e-003
 176.55400, 36.65132, 1.7501e-003
 177.05400, 36.76169, 1.7577e-003
 177.55400, 36.87202, 1.7654e-003
 178.05400, 36.98255, 1.7732e-003
 178.55400, 37.09321, 1.7805e-003
 179.05400, 37.20397, 1.7879e-003
 179.55400, 37.31456, 1.7957e-003
 180.05400, 37.42526, 1.8037e-003
 180.55400, 37.53586, 1.8114e-003
 181.05400, 37.64646, 1.8194e-003
 181.55400, 37.75707, 1.8267e-003
 182.05400, 37.86777, 1.8344e-003
 182.55400, 37.97834, 1.8422e-003
 183.05400, 38.08916, 1.8498e-003
 183.55400, 38.20012, 1.8572e-003
 184.05400, 38.31107, 1.8651e-003
 184.55400, 38.42216, 1.8728e-003
 185.05400, 38.53329, 1.8804e-003
 185.55400, 38.64433, 1.8882e-003
 186.05400, 38.75543, 1.8955e-003
 186.55400, 38.86661, 1.9030e-003
 187.05400, 38.97779, 1.9108e-003
 187.55400, 39.08907, 1.9186e-003
 188.05400, 39.20029, 1.9264e-003
 188.55400, 39.31155, 1.9339e-003
 189.05400, 39.42293, 1.9415e-003
 189.55400, 39.53428, 1.9494e-003
 190.05400, 39.64566, 1.9570e-003
 190.55400, 39.75704, 1.9649e-003
 191.05400, 39.86860, 1.9724e-003
 191.55400, 39.98035, 1.9799e-003
 192.05400, 40.09215, 1.9877e-003
 192.55400, 40.20418, 1.9952e-003
 193.05400, 40.31610, 2.0028e-003
 193.55400, 40.42803, 2.0105e-003
 194.05400, 40.53987, 2.0185e-003
 194.55400, 40.65175, 2.0262e-003
 195.05400, 40.76387, 2.0339e-003
 195.55400, 40.87590, 2.0413e-003
 196.05400, 40.98801, 2.0491e-003
 196.55400, 41.10055, 2.0567e-003
 197.05400, 41.21322, 2.0640e-003
 197.55400, 41.32584, 2.0717e-003
 198.05400, 41.43886, 2.0795e-003
 198.55400, 41.55208, 2.0877e-003
 199.05400, 41.66527, 2.0953e-003
 199.55400, 41.77865, 2.1030e-003
 200.05400, 41.89210, 2.1104e-003
 200.55400, 42.00576, 2.1183e-003
 201.05400, 42.11925, 2.1262e-003
 201.55400, 42.23251, 2.1340e-003
 202.05400, 42.34601, 2.1416e-003
 202.55400, 42.45959, 2.1489e-003
 203.05400, 42.57328, 2.1569e-003
 203.55400, 42.68692, 2.1645e-003
 204.05400, 42.80086, 2.1719e-003
 204.55400, 42.91478, 2.1797e-003
 205.05400, 43.02880, 2.1875e-003
 205.55400, 43.14296, 2.1952e-003
 206.05400, 43.25724, 2.2031e-003
 206.55400, 43.37170, 2.2108e-003
 207.05400, 43.48597, 2.2178e-003
 207.55400, 43.60034, 2.2261e-003
 208.05400, 43.71473, 2.2337e-003
 208.55400, 43.82887, 2.2421e-003
 209.05400, 43.94300, 2.2499e-003
 209.55400, 44.05713, 2.2575e-003
 210.05400, 44.17126, 2.2655e-003
 210.55400, 44.28570, 2.2737e-003
 211.05400, 44.40028, 2.2814e-003
 211.55400, 44.51494, 2.2895e-003
 212.05400, 44.63007, 2.2976e-003
 212.55400, 44.74525, 2.3054e-003
 213.05400, 44.86042, 2.3135e-003
 213.55400, 44.97598, 2.3218e-003
 214.05400, 45.09156, 2.3297e-003
 214.55400, 45.20740, 2.3381e-003
 215.05400, 45.32336, 2.3466e-003
 215.55400, 45.43942, 2.3547e-003
 216.05400, 45.55591, 2.3625e-003
 216.55400, 45.67250, 2.3708e-003
 217.05400, 45.78928, 2.3788e-003
 217.55400, 45.90645, 2.3869e-003
 218.05400, 46.02388, 2.3956e-003
 218.55400, 46.14165, 2.4037e-003
 219.05400, 46.25949, 2.4119e-003
 219.55400, 46.37742, 2.4197e-003
 220.05400, 46.49537, 2.4281e-003
 220.55400, 46.61332, 2.4360e-003
 221.05400, 46.73121, 2.4438e-003
 221.55400, 46.84892, 2.4518e-003
 222.05400, 46.96684, 2.4594e-003
 222.55400, 47.08484, 2.4675e-003
 223.05400, 47.20278, 2.4752e-003
 223.55400, 47.32067, 2.4834e-003
 224.05400, 47.43838, 2.4907e-003
 224.55400, 47.55594, 2.4984e-003
 225.05400, 47.67309, 2.5059e-003
 225.55400, 47.78992, 2.5135e-003
 226.05400, 47.90642, 2.5204e-003
 226.55400, 48.02238, 2.5283e-003
 227.05400, 48.13804, 2.5353e-003
 227.55400, 48.25322, 2.5432e-003
 228.05400, 48.36799, 2.5503e-003
 228.55400, 48.48232, 2.5576e-003
 229.05400, 48.59641, 2.5648e-003
 229.55400, 48.71056, 2.5715e-003
 230.05400, 48.82440, 2.5790e-003
 230.55400, 48.93794, 2.5858e-003
 231.05400, 49.05125, 2.5928e-003
 231.55400, 49.16440, 2.5996e-003
 232.05400, 49.27734, 2.6069e-003
 232.55400, 49.39042, 2.6140e-003
 233.05400, 49.50333, 2.6210e-003
 233.55400, 49.61623, 2.6281e-003
 234.05400, 49.72919, 2.6350e-003
 234.55400, 49.84207, 2.6423e-003
 235.05400, 49.95490, 2.6493e-003
 235.55400, 50.06741, 2.6567e-003
 236.05400, 50.17955, 2.6639e-003
 236.55400, 50.29162, 2.6711e-003
 237.05400, 50.40375, 2.6780e-003
 237.55400, 50.51578, 2.6855e-003
 238.05400, 50.62794, 2.6931e-003
 238.55400, 50.74055, 2.7002e-003
 239.05400, 50.85330, 2.7075e-003
 239.55400, 50.96627, 2.7149e-003
 240.05400, 51.07939, 2.7222e-003
 240.55400, 51.19274, 2.7298e-003
 241.05400, 51.30609, 2.7372e-003
 241.55400, 51.41905, 2.7446e-003
 242.05400, 51.53212, 2.7519e-003
 242.55400, 51.64541, 2.7599e-003
 243.05400, 51.75894, 2.7671e-003
 243.55400, 51.87275, 2.7751e-003
 244.05400, 51.98687, 2.7822e-003
 244.55400, 52.10151, 2.7899e-003
 245.05400, 52.21651, 2.7978e-003
 245.55400, 52.33172, 2.8052e-003
 246.05400, 52.44709, 2.8126e-003
 246.55400, 52.56256, 2.8204e-003
 247.05400, 52.67822, 2.8280e-003
 247.55400, 52.79407, 2.8359e-003
 248.05400, 52.91023, 2.8431e-003
 248.55400, 53.02665, 2.8508e-003
 249.05400, 53.14325, 2.8585e-003
 249.55400, 53.26020, 2.8662e-003
 250.05400, 53.37712, 2.8739e-003
 250.55400, 53.49397, 2.8819e-003
 251.05400, 53.61077, 2.8893e-003
 251.55400, 53.72765, 2.8973e-003
 252.05400, 53.84461, 2.9045e-003
 252.55400, 53.96182, 2.9126e-003
 253.05400, 54.07934, 2.9202e-003
 253.55400, 54.19709, 2.9279e-003
 254.05400, 54.31486, 2.9355e-003
 254.55400, 54.43289, 2.9432e-003
 255.05400, 54.55114, 2.9510e-003
 255.55400, 54.66936, 2.9583e-003
 256.05400, 54.78782, 2.9659e-003
 256.55400, 54.90648, 2.9733e-003
 257.05400, 55.02551, 2.9813e-003
 257.55400, 55.14481, 2.9890e-003
 258.05400, 55.26409, 2.9968e-003
 258.55400, 55.38361, 3.0045e-003
 259.05400, 55.50333, 3.0123e-003
 259.55400, 55.62313, 3.0203e-003
 260.05400, 55.74325, 3.0279e-003
 260.55400, 55.86354, 3.0356e-003
 261.05400, 55.98419, 3.0438e-003
 261.55400, 56.10499, 3.0508e-003
 262.05400, 56.22578, 3.0587e-003
 262.55400, 56.34695, 3.0664e-003
 263.05400, 56.46821, 3.0743e-003
 263.55400, 56.58935, 3.0815e-003
 264.05400, 56.71062, 3.0896e-003
 264.55400, 56.83209, 3.0972e-003
 265.05400, 56.95384, 3.1048e-003
 265.55400, 57.07563, 3.1127e-003
 266.05400, 57.19742, 3.1209e-003
 266.55400, 57.31935, 3.1284e-003
 267.05400, 57.44139, 3.1359e-003
 267.55400, 57.56340, 3.1437e-003
 268.05400, 57.68559, 3.1519e-003
 268.55400, 57.80804, 3.1593e-003
 269.05400, 57.93066, 3.1671e-003
 269.55400, 58.05362, 3.1750e-003
 270.05400, 58.17678, 3.1831e-003
 270.55400, 58.30011, 3.1907e-003
 271.05400, 58.42340, 3.1984e-003
 271.55400, 58.54664, 3.2059e-003
 272.05400, 58.67027, 3.2138e-003
 272.55400, 58.79391, 3.2215e-003
 273.05400, 58.91776, 3.2295e-003
 273.55400, 59.04166, 3.2373e-003
 274.05400, 59.16589, 3.2449e-003
 274.55400, 59.29037, 3.2527e-003
 275.05400, 59.41473, 3.2605e-003
 275.55400, 59.53931, 3.2682e-003
 276.05400, 59.66410, 3.2763e-003
 276.55400, 59.78932, 3.2837e-003
 277.05400, 59.91431, 3.2915e-003
 277.55400, 60.03929, 3.2992e-003
 278.05400, 60.16446, 3.3073e-003
 278.55400, 60.28954, 3.3149e-003
 279.05400, 60.41459, 3.3225e-003
 279.55400, 60.53978, 3.3300e-003
 280.05400, 60.66555, 3.3378e-003
 280.55400, 60.79146, 3.3457e-003
 281.05400, 60.91733, 3.3534e-003
 281.55400, 61.04332, 3.3608e-003
 282.05400, 61.16957, 3.3691e-003
 282.55400, 61.29580, 3.3764e-003
 283.05400, 61.42180, 3.3843e-003
 283.55400, 61.54821, 3.3917e-003
 284.05400, 61.67470, 3.3999e-003
 284.55400, 61.80107, 3.4078e-003
 285.05400, 61.92743, 3.4154e-003
 285.55400, 62.05425, 3.4234e-003
 286.05400, 62.18145, 3.4307e-003
 286.55400, 62.30843, 3.4384e-003
 287.05400, 62.43532, 3.4459e-003
 287.55400, 62.56259, 3.4536e-003
 288.05400, 62.68977, 3.4618e-003
 288.55400, 62.81675, 3.4697e-003
 289.05400, 62.94361, 3.4773e-003
 289.55400, 63.07092, 3.4854e-003
 290.05400, 63.19846, 3.4928e-003
 290.55400, 63.32593, 3.5004e-003
 291.05400, 63.45340, 3.5081e-003
 291.55400, 63.58098, 3.5158e-003
 292.05400, 63.70868, 3.5236e-003
 292.55400, 63.83658, 3.5318e-003
 293.05400, 63.96441, 3.5392e-003
 293.55400, 64.09249, 3.5469e-003
 294.05400, 64.22101, 3.5546e-003
 294.55400, 64.34962, 3.5628e-003
 295.05400, 64.47820, 3.5708e-003
 295.55400, 64.60697, 3.5788e-003
 296.05400, 64.73590, 3.5865e-003
 296.55400, 64.86470, 3.5938e-003
 297.05400, 64.99341, 3.6018e-003
 297.55400, 65.12229, 3.6095e-003
 298.05400, 65.25152, 3.6171e-003
 298.55400, 65.38064, 3.6262e-003
 299.05400, 65.50991, 3.6349e-003
 299.55400, 65.63953, 3.6424e-003
 300.05400, 65.76950, 3.6500e-003
 300.55400, 65.89929, 3.6579e-003
 301.05400, 66.02920, 3.6652e-003
 301.55400, 66.15913, 3.6728e-003
 302.05400, 66.28921, 3.6805e-003
 302.55400, 66.41887, 3.6880e-003
 303.05400, 66.54860, 3.6972e-003
 303.55400, 66.67836, 3.7052e-003
 304.05400, 66.80826, 3.7129e-003
 304.55400, 66.93807, 3.7204e-003
 305.05400, 67.06830, 3.7278e-003
 305.55400, 67.19849, 3.7354e-003
 306.05400, 67.32822, 3.7430e-003
 306.55400, 67.45799, 3.7510e-003
 307.05400, 67.58783, 3.7600e-003
 307.55400, 67.71775, 3.7680e-003
 308.05400, 67.84774, 3.7755e-003
 308.55400, 67.97823, 3.7831e-003
 309.05400, 68.10907, 3.7910e-003
 309.55400, 68.23993, 3.7986e-003
 310.05400, 68.37106, 3.8061e-003
 310.55400, 68.50209, 3.8152e-003
 311.05400, 68.63336, 3.8231e-003
 311.55400, 68.76454, 3.8306e-003
 312.05400, 68.89581, 3.8382e-003
 312.55400, 69.02710, 3.8457e-003
 313.05400, 69.15859, 3.8535e-003
 313.55400, 69.29032, 3.8612e-003
 314.05400, 69.42192, 3.8685e-003
 314.55400, 69.55355, 3.8762e-003
 315.05400, 69.68549, 3.8851e-003
 315.55400, 69.81729, 3.8924e-003
 316.05400, 69.94857, 3.9001e-003
 316.55400, 70.07997, 3.9076e-003
 317.05400, 70.21135, 3.9150e-003
 317.55400, 70.34280, 3.9230e-003
 318.05400, 70.47408, 3.9307e-003
 318.55400, 70.60545, 3.9381e-003
 319.05400, 70.73662, 3.9470e-003
 319.55400, 70.86787, 3.9546e-003
 320.05400, 70.99942, 3.9622e-003
 320.55400, 71.13096, 3.9694e-003
 321.05400, 71.26292, 3.9783e-003
 321.55400, 71.39527, 3.9862e-003
 322.05400, 71.52795, 3.9935e-003
 322.55400, 71.66029, 4.0008e-003
 323.05400, 71.79281, 4.0085e-003
 323.55400, 71.92552, 4.0160e-003
 324.05400, 72.05810, 4.0235e-003
 324.55400, 72.19061, 4.0309e-003
 325.05400, 72.32328, 4.0400e-003
 325.55400, 72.45591, 4.0475e-003
 326.05400, 72.58869, 4.0552e-003
 326.55400, 72.72158, 4.0627e-003
 327.05400, 72.85456, 4.0704e-003
 327.55400, 72.98799, 4.0777e-003
 328.05400, 73.12138, 4.0852e-003
 328.55400, 73.25485, 4.0927e-003
 329.05400, 73.38844, 4.1021e-003
 329.55400, 73.52227, 4.1095e-003
 330.05400, 73.65630, 4.1171e-003
 330.55400, 73.79040, 4.1248e-003
 331.05400, 73.92454, 4.1323e-003
 331.55400, 74.05874, 4.1401e-003
 332.05400, 74.19290, 4.1477e-003
 332.55400, 74.32704, 4.1566e-003
 333.05400, 74.46122, 4.1645e-003
 333.55400, 74.59566, 4.1717e-003
 334.05400, 74.73032, 4.1791e-003
 334.55400, 74.86512, 4.1869e-003
 335.05400, 75.00011, 4.1944e-003
 335.55400, 75.13517, 4.2036e-003
 336.05400, 75.27066, 4.2115e-003
 336.55400, 75.40621, 4.2188e-003
 337.05400, 75.54188, 4.2262e-003
 337.55400, 75.67738, 4.2336e-003
 338.05400, 75.81264, 4.2415e-003
 338.55400, 75.94777, 4.2491e-003
 339.05400, 76.08245, 4.2563e-003
 339.55400, 76.21715, 4.2639e-003
 340.05400, 76.35194, 4.2715e-003
 340.55400, 76.48707, 4.2803e-003
 341.05400, 76.62217, 4.2880e-003
 341.55400, 76.75740, 4.2950e-003
 342.05400, 76.89284, 4.3029e-003
 342.55400, 77.02832, 4.3105e-003
 343.05400, 77.16390, 4.3176e-003
 343.55400, 77.29954, 4.3256e-003
 344.05400, 77.43518, 4.3331e-003
 344.55400, 77.57091, 4.3419e-003
 345.05400, 77.70702, 4.3498e-003
 345.55400, 77.84320, 4.3570e-003
 346.05400, 77.97942, 4.3647e-003
 346.55400, 78.11557, 4.3723e-003
 347.05400, 78.25166, 4.3798e-003
 347.55400, 78.38800, 4.3876e-003
 348.05400, 78.52436, 4.3953e-003
 348.55400, 78.66095, 4.4045e-003
 349.05400, 78.79788, 4.4120e-003
 349.55400, 78.93515, 4.4198e-003
 350.05400, 79.07226, 4.4273e-003
 350.55400, 79.20993, 4.4349e-003
 351.05400, 79.34738, 4.4420e-003
 351.55400, 79.48482, 4.4499e-003
 352.05400, 79.62229, 4.4572e-003
 352.55400, 79.76048, 4.4653e-003
 353.05400, 79.89816, 4.4742e-003
 353.55400, 80.03595, 4.4813e-003
 354.05400, 80.17398, 4.4890e-003
 354.55400, 80.31209, 4.4962e-003
 355.05400, 80.44969, 4.5052e-003
 355.55400, 80.58743, 4.5130e-003
 356.05400, 80.72538, 4.5202e-003
 356.55400, 80.86311, 4.5279e-003
 357.05400, 81.00106, 4.5354e-003
 357.55400, 81.13926, 4.5430e-003
 358.05400, 81.27755, 4.5519e-003
 358.55400, 81.41586, 4.5594e-003
 359.05400, 81.55473, 4.5665e-003
 359.55400, 81.69326, 4.5744e-003
 360.05400, 81.83176, 4.5821e-003
 360.55400, 81.97022, 4.5897e-003
 361.05400, 82.10884, 4.5974e-003
 361.55400, 82.24749, 4.6045e-003
 362.05400, 82.38616, 4.6121e-003
 362.55400, 82.52483, 4.6211e-003
 363.05400, 82.66355, 4.6290e-003
 363.55400, 82.80208, 4.6358e-003
 364.05400, 82.94074, 4.6436e-003
 364.55400, 83.07953, 4.6515e-003
 365.05400, 83.21871, 4.6590e-003
 365.55400, 83.35818, 4.6663e-003
 366.05400, 83.49784, 4.6751e-003
 366.55400, 83.63759, 4.6828e-003
 367.05400, 83.77760, 4.6901e-003
 367.55400, 83.91795, 4.6977e-003
 368.05400, 84.05821, 4.7050e-003
 368.55400, 84.19814, 4.7128e-003
 369.05400, 84.33793, 4.7204e-003
 369.55400, 84.47779, 4.7281e-003
 370.05400, 84.61761, 4.7376e-003
 370.55400, 84.75760, 4.7451e-003
 371.05400, 84.89815, 4.7528e-003
 371.55400, 85.03882, 4.7601e-003
 372.05400, 85.17942, 4.7679e-003
 372.55400, 85.31951, 4.7752e-003
 373.05400, 85.45922, 4.7828e-003
 373.55400, 85.59930, 4.7905e-003
 374.05400, 85.73934, 4.7977e-003
 374.55400, 85.87952, 4.8047e-003
 375.05400, 86.02018, 4.8139e-003
 375.55400, 86.16124, 4.8218e-003
 376.05400, 86.30188, 4.8291e-003
 376.55400, 86.44265, 4.8369e-003
 377.05400, 86.58360, 4.8446e-003
 377.55400, 86.72435, 4.8519e-003
 378.05400, 86.86489, 4.8591e-003
 378.55400, 87.00576, 4.8671e-003
 379.05400, 87.14667, 4.8746e-003
 379.55400, 87.28763, 4.8817e-003
 380.05400, 87.42898, 4.8913e-003
 380.55400, 87.57074, 4.8986e-003
 381.05400, 87.71261, 4.9061e-003
 381.55400, 87.85451, 4.9138e-003
 382.05400, 87.99641, 4.9211e-003
 382.55400, 88.13837, 4.9289e-003
 383.05400, 88.28037, 4.9365e-003
 383.55400, 88.42242, 4.9444e-003
 384.05400, 88.56476, 4.9536e-003
 384.55400, 88.70732, 4.9609e-003
 385.05400, 88.84974, 4.9688e-003
 385.55400, 88.99223, 4.9764e-003
 386.05400, 89.13477, 4.9839e-003
 386.55400, 89.27777, 4.9918e-003
 387.05400, 89.42063, 4.9991e-003
 387.55400, 89.56372, 5.0068e-003
 388.05400, 89.70684, 5.0140e-003
 388.55400, 89.85003, 5.0235e-003
 389.05400, 89.99275, 5.0311e-003
 389.55400, 90.13566, 5.0391e-003
 390.05400, 90.27857, 5.0462e-003
 390.55400, 90.42157, 5.0537e-003
 391.05400, 90.56511, 5.0617e-003
 391.55400, 90.70863, 5.0686e-003
 392.05400, 90.85239, 5.0763e-003
 392.55400, 90.99650, 5.0856e-003
 393.05400, 91.14073, 5.0931e-003
 393.55400, 91.28459, 5.1003e-003
 394.05400, 91.42886, 5.1079e-003
 394.55400, 91.57313, 5.1158e-003
 395.05400, 91.71747, 5.1233e-003
 395.55400, 91.86176, 5.1312e-003
 396.05400, 92.00630, 5.1382e-003
 396.55400, 92.15091, 5.1476e-003
 397.05400, 92.29558, 5.1551e-003
 397.55400, 92.44018, 5.1627e-003
 398.05400, 92.58483, 5.1700e-003
 398.55400, 92.72938, 5.1775e-003
 399.05400, 92.87380, 5.1852e-003
 399.55400, 93.01828, 5.1929e-003
 400.05400, 93.16287, 5.2018e-003
 400.55400, 93.30771, 5.2091e-003
 401.05400, 93.45287, 5.2165e-003
 401.55400, 93.59833, 5.2240e-003
 402.05400, 93.74392, 5.2317e-003
 402.55400, 93.88961, 5.2390e-003
 403.05400, 94.03551, 5.2469e-003
 403.55400, 94.18159, 5.2542e-003
 404.05400, 94.32761, 5.2618e-003
 404.55400, 94.47386, 5.2699e-003
 405.05400, 94.62026, 5.2790e-003
 405.55400, 94.76669, 5.2861e-003
 406.05400, 94.91290, 5.2940e-003
 406.55400, 95.05930, 5.3014e-003
 407.05400, 95.20583, 5.3091e-003
 407.55400, 95.35236, 5.3161e-003
 408.05400, 95.49901, 5.3240e-003
 408.55400, 95.64590, 5.3318e-003
 409.05400, 95.79247, 5.3410e-003
 409.55400, 95.93913, 5.3486e-003
 410.05400, 96.08572, 5.3560e-003
 410.55400, 96.23194, 5.3632e-003
 411.05400, 96.37810, 5.3707e-003
 411.55400, 96.52437, 5.3783e-003
 412.05400, 96.67076, 5.3859e-003
 412.55400, 96.81734, 5.3950e-003
 413.05400, 96.96437, 5.4023e-003
 413.55400, 97.11170, 5.4096e-003
 414.05400, 97.25913, 5.4170e-003
 414.55400, 97.40611, 5.4251e-003
 415.05400, 97.55302, 5.4327e-003
 415.55400, 97.70029, 5.4405e-003
 416.05400, 97.84771, 5.4478e-003
 416.55400, 97.99523, 5.4574e-003
 417.05400, 98.14347, 5.4648e-003
 417.55400, 98.29192, 5.4720e-003
 418.05400, 98.44005, 5.4799e-003
 418.55400, 98.58806, 5.4872e-003
 419.05400, 98.73591, 5.4950e-003
 419.55400, 98.88379, 5.5021e-003
 420.05400, 99.03174, 5.5102e-003
 420.55400, 99.17982, 5.5175e-003
 421.05400, 99.32805, 5.5253e-003
 421.55400, 99.47637, 5.5329e-003
 422.05400, 99.62453, 5.5418e-003
 422.55400, 99.77259, 5.5497e-003
 423.05400, 99.92077, 5.5569e-003
 423.55400,100.06898, 5.5645e-003
 424.05400,100.21752, 5.5717e-003
 424.55400,100.36624, 5.5795e-003
 425.05400,100.51521, 5.5874e-003
 425.55400,100.66418, 5.5947e-003
 426.05400,100.81326, 5.6022e-003
 426.55400,100.96233, 5.6111e-003
 427.05400,101.11160, 5.6190e-003
 427.55400,101.26089, 5.6264e-003
 428.05400,101.41024, 5.6340e-003
 428.55400,101.55935, 5.6416e-003
 429.05400,101.70839, 5.6491e-003
 429.55400,101.85734, 5.6564e-003
 430.05400,102.00624, 5.6640e-003
 430.55400,102.15556, 5.6715e-003
 431.05400,102.30536, 5.6793e-003
 431.55400,102.45544, 5.6889e-003
 432.05400,102.60545, 5.6959e-003
 432.55400,102.75581, 5.7037e-003
 433.05400,102.90625, 5.7115e-003
 433.55400,103.05644, 5.7189e-003
 434.05400,103.20685, 5.7261e-003
 434.55400,103.35741, 5.7340e-003
 435.05400,103.50769, 5.7419e-003
 435.55400,103.65769, 5.7494e-003
 436.05400,103.80770, 5.7573e-003
 436.55400,103.95784, 5.7669e-003
 437.05400,104.10807, 5.7748e-003
 437.55400,104.25884, 5.7826e-003
 438.05400,104.40996, 5.7902e-003
 438.55400,104.56160, 5.7983e-003
 439.05400,104.71378, 5.8063e-003
 439.55400,104.86633, 5.8145e-003
 440.05400,105.01942, 5.8227e-003
 440.55400,105.17300, 5.8310e-003
 441.05400,105.32677, 5.8408e-003
 441.55400,105.48088, 5.8485e-003
 442.05400,105.63554, 5.8565e-003
 442.55400,105.79026, 5.8648e-003
 443.05400,105.94537, 5.8729e-003
 443.55400,106.10031, 5.8820e-003
 444.05400,106.25494, 5.8896e-003
 444.55400,106.40953, 5.8995e-003
 445.05400,106.56413, 5.9073e-003
 445.55400,106.71868, 5.9147e-003
 446.05400,106.87305, 5.9223e-003
 446.55400,107.02742, 5.9301e-003
 447.05400,107.18156, 5.9378e-003
 447.55400,107.33514, 5.9457e-003
 448.05400,107.48800, 5.9526e-003
 448.55400,107.64018, 5.9600e-003
 449.05400,107.79154, 5.9674e-003
 449.55400,107.94215, 5.9742e-003
 450.05400,108.09198, 5.9824e-003
 450.55400,108.24131, 5.9896e-003
 451.05400,108.39006, 5.9971e-003
 451.55400,108.53813, 6.0041e-003
 452.05400,108.68554, 6.0112e-003
 452.55400,108.83246, 6.0186e-003
 453.05400,108.97904, 6.0257e-003
 453.55400,109.12532, 6.0342e-003
 454.05400,109.27158, 6.0412e-003
 454.55400,109.41797, 6.0484e-003
 455.05400,109.56451, 6.0555e-003
 455.55400,109.71122, 6.0625e-003
 456.05400,109.85769, 6.0696e-003
 456.55400,110.00467, 6.0767e-003
 457.05400,110.15178, 6.0846e-003
 457.55400,110.29915, 6.0916e-003
 458.05400,110.44686, 6.1008e-003
 458.55400,110.59483, 6.1076e-003
 459.05400,110.74275, 6.1150e-003
 459.55400,110.89048, 6.1228e-003
 460.05400,111.03872, 6.1301e-003
 460.55400,111.18702, 6.1382e-003
 461.05400,111.33591, 6.1454e-003
 461.55400,111.48499, 6.1528e-003
 462.05400,111.63457, 6.1608e-003
 462.55400,111.78427, 6.1683e-003
 463.05400,111.93449, 6.1778e-003
 463.55400,112.08510, 6.1857e-003
 464.05400,112.23600, 6.1926e-003
 464.55400,112.38714, 6.2007e-003
 465.05400,112.53839, 6.2080e-003
 465.55400,112.68972, 6.2150e-003
 466.05400,112.84134, 6.2230e-003
 466.55400,112.99323, 6.2311e-003
 467.05400,113.14538, 6.2393e-003
 467.55400,113.29814, 6.2471e-003
 468.05400,113.45120, 6.2545e-003
 468.55400,113.60432, 6.2619e-003
 469.05400,113.75792, 6.2696e-003
 469.55400,113.91165, 6.2775e-003
 470.05400,114.06521, 6.2852e-003
 470.55400,114.21896, 6.2941e-003
 471.05400,114.37316, 6.3015e-003
 471.55400,114.52750, 6.3093e-003
 472.05400,114.68165, 6.3168e-003
 472.55400,114.83619, 6.3244e-003
 473.05400,114.99094, 6.3322e-003
 473.55400,115.14546, 6.3399e-003
 474.05400,115.30024, 6.3473e-003
 474.55400,115.45557, 6.3555e-003
 475.05400,115.61108, 6.3632e-003
 475.55400,115.76703, 6.3707e-003
 476.05400,115.92309, 6.3797e-003
 476.55400,116.07943, 6.3873e-003
 477.05400,116.23587, 6.3951e-003
 477.55400,116.39245, 6.4028e-003
 478.05400,116.54931, 6.4102e-003
 478.55400,116.70636, 6.4179e-003
 479.05400,116.86335, 6.4253e-003
 479.55400,117.02036, 6.4330e-003
 480.05400,117.17757, 6.4407e-003
 480.55400,117.33491, 6.4482e-003
 481.05400,117.49229, 6.4574e-003
 481.55400,117.64995, 6.4658e-003
 482.05400,117.80703, 6.4734e-003
 482.55400,117.96415, 6.4808e-003
 483.05400,118.12213, 6.4889e-003
 483.55400,118.28060, 6.4978e-003
 484.05400,118.43933, 6.5051e-003
 484.55400,118.59830, 6.5128e-003
 485.05400,118.75731, 6.5203e-003
 485.55400,118.91588, 6.5279e-003
 486.05400,119.07458, 6.5357e-003
 486.55400,119.23340, 6.5429e-003
 487.05400,119.39258, 6.5511e-003
 487.55400,119.55162, 6.5585e-003
 488.05400,119.71102, 6.5674e-003
 488.55400,119.87053, 6.5755e-003
 489.05400,120.03016, 6.5833e-003
 489.55400,120.19010, 6.5907e-003
 490.05400,120.35033, 6.5982e-003
 490.55400,120.51035, 6.6060e-003
 491.05400,120.67076, 6.6136e-003
 491.55400,120.83107, 6.6230e-003
 492.05400,120.99109, 6.6308e-003
 492.55400,121.15092, 6.6382e-003
 493.05400,121.31112, 6.6461e-003
 493.55400,121.47128, 6.6535e-003
 494.05400,121.63178, 6.6613e-003
 494.55400,121.79258, 6.6690e-003
 495.05400,121.95373, 6.6761e-003
 495.55400,122.11475, 6.6844e-003
 496.05400,122.27574, 6.6919e-003
 496.55400,122.43619, 6.6994e-003
 497.05400,122.59640, 6.7071e-003
 497.55400,122.75654, 6.7164e-003
 498.05400,122.91659, 6.7243e-003
 498.55400,123.07713, 6.7315e-003
 499.05400,123.23805, 6.7397e-003
 499.55400,123.39951, 6.7472e-003
 500.05400,123.56106, 6.7549e-003
 500.55400,123.72286, 6.7631e-003
 501.05400,123.88505, 6.7708e-003
 501.55400,124.04716, 6.7786e-003
 502.05400,124.20944, 6.7867e-003
 502.55400,124.37213, 6.7969e-003
 503.05400,124.53551, 6.8051e-003
 503.55400,124.69931, 6.8132e-003
 504.05400,124.86347, 6.8212e-003
 504.55400,125.02852, 6.8298e-003
 505.05400,125.19386, 6.8385e-003
 505.55400,125.35899, 6.8464e-003
 506.05400,125.52470, 6.8546e-003
 506.55400,125.69066, 6.8628e-003
 507.05400,125.85603, 6.8711e-003
 507.55400,126.02202, 6.8810e-003
 508.05400,126.18828, 6.8893e-003
 508.55400,126.35405, 6.8970e-003
 509.05400,126.51996, 6.9051e-003
 509.55400,126.68558, 6.9130e-003
 510.05400,126.85095, 6.9204e-003
 510.55400,127.01559, 6.9279e-003
 511.05400,127.17922, 6.9348e-003
 511.55400,127.34142, 6.9423e-003
 512.05400,127.50231, 6.9496e-003
 512.55400,127.66224, 6.9566e-003
 513.05400,127.82088, 6.9641e-003
 513.55400,127.97922, 6.9714e-003
 514.05400,128.13704, 6.9801e-003
 514.55400,128.29414, 6.9870e-003
 515.05400,128.45105, 6.9942e-003
 515.55400,128.60806, 7.0014e-003
 516.05400,128.76452, 7.0082e-003
 516.55400,128.92078, 7.0154e-003
 517.05400,129.07689, 7.0226e-003
 517.55400,129.23250, 7.0301e-003
 518.05400,129.38820, 7.0374e-003
 518.55400,129.54433, 7.0447e-003
 519.05400,129.70043, 7.0524e-003
 519.55400,129.85706, 7.0599e-003
 520.05400,130.01388, 7.0694e-003
 520.55400,130.17107, 7.0769e-003
 521.05400,130.32880, 7.0841e-003
 521.55400,130.48644, 7.0918e-003
 522.05400,130.64459, 7.0991e-003
 522.55400,130.80297, 7.1071e-003
 523.05400,130.96115, 7.1144e-003
 523.55400,131.11987, 7.1218e-003
 524.05400,131.27908, 7.1296e-003
 524.55400,131.43844, 7.1369e-003
 525.05400,131.59814, 7.1466e-003
 525.55400,131.75821, 7.1547e-003
 526.05400,131.91854, 7.1623e-003
 526.55400,132.07906, 7.1698e-003
 527.05400,132.23994, 7.1775e-003
 527.55400,132.40186, 7.1851e-003
 528.05400,132.56367, 7.1929e-003
 528.55400,132.72543, 7.2007e-003
 529.05400,132.88760, 7.2100e-003
 529.55400,133.04959, 7.2177e-003
 530.05400,133.21164, 7.2254e-003
 530.55400,133.37407, 7.2325e-003
 531.05400,133.53676, 7.2400e-003
 531.55400,133.69916, 7.2479e-003
 532.05400,133.86178, 7.2552e-003
 532.55400,134.02482, 7.2630e-003
 533.05400,134.18783, 7.2709e-003
 533.55400,134.35143, 7.2808e-003
 534.05400,134.51567, 7.2886e-003
 534.55400,134.68051, 7.2965e-003
 535.05400,134.84536, 7.3040e-003
 535.55400,135.01003, 7.3115e-003
 536.05400,135.17513, 7.3193e-003
 536.55400,135.33983, 7.3270e-003
 537.05400,135.50486, 7.3348e-003
 537.55400,135.67013, 7.3421e-003
 538.05400,135.83549, 7.3497e-003
 538.55400,136.00091, 7.3597e-003
 539.05400,136.16658, 7.3674e-003
 539.55400,136.33241, 7.3751e-003
 540.05400,136.49830, 7.3825e-003
 540.55400,136.66415, 7.3904e-003
 541.05400,136.83008, 7.3984e-003
 541.55400,136.99592, 7.4063e-003
 542.05400,137.16214, 7.4138e-003
 542.55400,137.32928, 7.4222e-003
 543.05400,137.49670, 7.4295e-003
 543.55400,137.66431, 7.4376e-003
 544.05400,137.83226, 7.4453e-003
 544.55400,138.00013, 7.4551e-003
 545.05400,138.16791, 7.4624e-003
 545.55400,138.33622, 7.4708e-003
 546.05400,138.50468, 7.4782e-003
 546.55400,138.67307, 7.4859e-003
 547.05400,138.84155, 7.4936e-003
 547.55400,139.00975, 7.5019e-003
 548.05400,139.17739, 7.5094e-003
 548.55400,139.34503, 7.5174e-003
 549.05400,139.51290, 7.5264e-003
 549.55400,139.68056, 7.5345e-003
 550.05400,139.84866, 7.5417e-003
 550.55400,140.01700, 7.5497e-003
 551.05400,140.18512, 7.5572e-003
 551.55400,140.35362, 7.5650e-003
 552.05400,140.52208, 7.5726e-003
 552.55400,140.69037, 7.5806e-003
 553.05400,140.85834, 7.5902e-003
 553.55400,141.02620, 7.5976e-003
 554.05400,141.19411, 7.6052e-003
 554.55400,141.36210, 7.6131e-003
 555.05400,141.53097, 7.6211e-003
 555.55400,141.69979, 7.6284e-003
 556.05400,141.86846, 7.6382e-003
 556.55400,142.03739, 7.6461e-003
 557.05400,142.20642, 7.6539e-003
 557.55400,142.37581, 7.6612e-003
 558.05400,142.54588, 7.6693e-003
 558.55400,142.71583, 7.6769e-003
 559.05400,142.88599, 7.6849e-003
 559.55400,143.05573, 7.6925e-003
 560.05400,143.22543, 7.7005e-003
 560.55400,143.39563, 7.7081e-003
 561.05400,143.56577, 7.7160e-003
 561.55400,143.73612, 7.7241e-003
 562.05400,143.90625, 7.7312e-003
 562.55400,144.07554, 7.7399e-003
 563.05400,144.24498, 7.7497e-003
 563.55400,144.41464, 7.7572e-003
 564.05400,144.58445, 7.7652e-003
 564.55400,144.75503, 7.7727e-003
 565.05400,144.92565, 7.7803e-003
 565.55400,145.09609, 7.7884e-003
 566.05400,145.26634, 7.7962e-003
 566.55400,145.43684, 7.8039e-003
 567.05400,145.60726, 7.8133e-003
 567.55400,145.77770, 7.8215e-003
 568.05400,145.94838, 7.8289e-003
 568.55400,146.11888, 7.8370e-003
 569.05400,146.28940, 7.8446e-003
 569.55400,146.45956, 7.8523e-003
 570.05400,146.62972, 7.8603e-003
 570.55400,146.79976, 7.8685e-003
 571.05400,146.96996, 7.8761e-003
 571.55400,147.14028, 7.8836e-003
 572.05400,147.31087, 7.8919e-003
 572.55400,147.48167, 7.9011e-003
 573.05400,147.65258, 7.9089e-003
 573.55400,147.82355, 7.9172e-003
 574.05400,147.99457, 7.9247e-003
 574.55400,148.16570, 7.9323e-003
 575.05400,148.33695, 7.9403e-003
 575.55400,148.50864, 7.9487e-003
 576.05400,148.68061, 7.9566e-003
 576.55400,148.85310, 7.9644e-003
 577.05400,149.02597, 7.9723e-003
 577.55400,149.19890, 7.9801e-003
 578.05400,149.37165, 7.9882e-003
 578.55400,149.54386, 7.9974e-003
 579.05400,149.71583, 8.0057e-003
 579.55400,149.88769, 8.0137e-003
 580.05400,150.05969, 8.0216e-003
 580.55400,150.23189, 8.0292e-003
 581.05400,150.40380, 8.0373e-003
 581.55400,150.57585, 8.0445e-003
 582.05400,150.74798, 8.0519e-003
 582.55400,150.92016, 8.0599e-003
 583.05400,151.09253, 8.0679e-003
 583.55400,151.26449, 8.0755e-003
 584.05400,151.43643, 8.0859e-003
 584.55400,151.60805, 8.0933e-003
 585.05400,151.77955, 8.1015e-003
 585.55400,151.95138, 8.1092e-003
 586.05400,152.12310, 8.1168e-003
 586.55400,152.29512, 8.1249e-003
 587.05400,152.46734, 8.1327e-003
 587.55400,152.63986, 8.1405e-003
 588.05400,152.81299, 8.1486e-003
 588.55400,152.98641, 8.1565e-003
 589.05400,153.15944, 8.1666e-003
 589.55400,153.33263, 8.1743e-003
 590.05400,153.50506, 8.1821e-003
 590.55400,153.67748, 8.1896e-003
 591.05400,153.85010, 8.1981e-003
 591.55400,154.02300, 8.2058e-003
 592.05400,154.19664, 8.2139e-003
 592.55400,154.37026, 8.2214e-003
 593.05400,154.54417, 8.2295e-003
 593.55400,154.71808, 8.2374e-003
 594.05400,154.89206, 8.2447e-003
 594.55400,155.06615, 8.2550e-003
 595.05400,155.24005, 8.2627e-003
 595.55400,155.41368, 8.2710e-003
 596.05400,155.58717, 8.2787e-003
 596.55400,155.76076, 8.2868e-003
 597.05400,155.93469, 8.2947e-003
 597.55400,156.10907, 8.3027e-003
 598.05400,156.28367, 8.3102e-003
 598.55400,156.45872, 8.3177e-003
 599.05400,156.63364, 8.3253e-003
 599.55400,156.80816, 8.3333e-003
 600.05400,156.98308, 8.3417e-003
 600.55400,157.15767, 8.3488e-003
 601.05400,157.33233, 8.3590e-003
 601.55400,157.50692, 8.3669e-003
 602.05400,157.68062, 8.3751e-003
 602.55400,157.85440, 8.3829e-003
 603.05400,158.02795, 8.3908e-003
 603.55400,158.20242, 8.3986e-003
 604.05400,158.37719, 8.4065e-003
 604.55400,158.55196, 8.4143e-003
 605.05400,158.72682, 8.4222e-003
 605.55400,158.90106, 8.4305e-003
 606.05400,159.07531, 8.4384e-003
 606.55400,159.24986, 8.4468e-003
 607.05400,159.42477, 8.4544e-003
 607.55400,159.60020, 8.4650e-003
 608.05400,159.77633, 8.4727e-003
 608.55400,159.95199, 8.4811e-003
 609.05400,160.12770, 8.4889e-003
 609.55400,160.30383, 8.4974e-003
 610.05400,160.48093, 8.5054e-003
 610.55400,160.65883, 8.5141e-003
 611.05400,160.83760, 8.5223e-003
 611.55400,161.01726, 8.5310e-003
 612.05400,161.19721, 8.5401e-003
 612.55400,161.37815, 8.5483e-003
 613.05400,161.55986, 8.5568e-003
 613.55400,161.74190, 8.5655e-003
 614.05400,161.92361, 8.5750e-003
 614.55400,162.10496, 8.5833e-003
 615.05400,162.28596, 8.5917e-003
 615.55400,162.46638, 8.5998e-003
 616.05400,162.64661, 8.6091e-003
 616.55400,162.82581, 8.6170e-003
 617.05400,163.00320, 8.6245e-003
 617.55400,163.17995, 8.6322e-003
 618.05400,163.35562, 8.6400e-003
 618.55400,163.53015, 8.6473e-003
 619.05400,163.70467, 8.6545e-003
 619.55400,163.87802, 8.6614e-003
 620.05400,164.05010, 8.6690e-003
 620.55400,164.22221, 8.6767e-003
 621.05400,164.39356, 8.6839e-003
 621.55400,164.56409, 8.6916e-003
 622.05400,164.73472, 8.7009e-003
 622.55400,164.90442, 8.7087e-003
 623.05400,165.07463, 8.7167e-003
 623.55400,165.24477, 8.7241e-003
 624.05400,165.41444, 8.7312e-003
 624.55400,165.58420, 8.7395e-003
 625.05400,165.75374, 8.7470e-003
 625.55400,165.92386, 8.7548e-003
 626.05400,166.09473, 8.7627e-003
 626.55400,166.26645, 8.7727e-003
 627.05400,166.43861, 8.7802e-003
 627.55400,166.61096, 8.7887e-003
 628.05400,166.78374, 8.7962e-003
 628.55400,166.95676, 8.8040e-003
 629.05400,167.12973, 8.8120e-003
 629.55400,167.30320, 8.8196e-003
 630.05400,167.47648, 8.8272e-003
 630.55400,167.65010, 8.8350e-003
 631.05400,167.82361, 8.8425e-003
 631.55400,167.99724, 8.8504e-003
 632.05400,168.17146, 8.8605e-003
 632.55400,168.34597, 8.8684e-003
 633.05400,168.52150, 8.8764e-003
 633.55400,168.69754, 8.8845e-003
 634.05400,168.87369, 8.8921e-003
 634.55400,169.04995, 8.9027e-003
 635.05400,169.22635, 8.9105e-003
 635.55400,169.40308, 8.9180e-003
 636.05400,169.57991, 8.9261e-003
 636.55400,169.75689, 8.9336e-003
 637.05400,169.93399, 8.9420e-003
 637.55400,170.11079, 8.9499e-003
 638.05400,170.28789, 8.9575e-003
 638.55400,170.46530, 8.9650e-003
 639.05400,170.64293, 8.9729e-003
 639.55400,170.82078, 8.9808e-003
 640.05400,170.99880, 8.9882e-003
 640.55400,171.17683, 8.9963e-003
 641.05400,171.35462, 9.0069e-003
 641.55400,171.53267, 9.0156e-003
 642.05400,171.71091, 9.0231e-003
 642.55400,171.89011, 9.0312e-003
 643.05400,172.06938, 9.0391e-003
 643.55400,172.24861, 9.0470e-003
 644.05400,172.42762, 9.0550e-003
 644.55400,172.60629, 9.0628e-003
 645.05400,172.78547, 9.0708e-003
 645.55400,172.96510, 9.0808e-003
 646.05400,173.14496, 9.0886e-003
 646.55400,173.32480, 9.0967e-003
 647.05400,173.50476, 9.1047e-003
 647.55400,173.68481, 9.1123e-003
 648.05400,173.86492, 9.1208e-003
 648.55400,174.04511, 9.1303e-003
 649.05400,174.22575, 9.1389e-003
 649.55400,174.40634, 9.1468e-003
 650.05400,174.58750, 9.1546e-003
 650.55400,174.76845, 9.1625e-003
 651.05400,174.94872, 9.1708e-003
 651.55400,175.12944, 9.1788e-003
 652.05400,175.30987, 9.1863e-003
 652.55400,175.49035, 9.1935e-003
 653.05400,175.67105, 9.2021e-003
 653.55400,175.85145, 9.2099e-003
 654.05400,176.03179, 9.2178e-003
 654.55400,176.21247, 9.2257e-003
 655.05400,176.39371, 9.2339e-003
 655.55400,176.57508, 9.2416e-003
 656.05400,176.75704, 9.2515e-003
 656.55400,176.93921, 9.2595e-003
 657.05400,177.12135, 9.2672e-003
 657.55400,177.30378, 9.2756e-003
 658.05400,177.48562, 9.2838e-003
 658.55400,177.66777, 9.2916e-003
 659.05400,177.84996, 9.2996e-003
 659.55400,178.03211, 9.3073e-003
 660.05400,178.21427, 9.3157e-003
 660.55400,178.39581, 9.3260e-003
 661.05400,178.57745, 9.3338e-003
 661.55400,178.75858, 9.3420e-003
 662.05400,178.94053, 9.3499e-003
 662.55400,179.12269, 9.3578e-003
 663.05400,179.30417, 9.3655e-003
 663.55400,179.48594, 9.3736e-003
 664.05400,179.66740, 9.3814e-003
 664.55400,179.84872, 9.3908e-003
 665.05400,180.03084, 9.3986e-003
 665.55400,180.21334, 9.4065e-003
 666.05400,180.39601, 9.4147e-003
 666.55400,180.57860, 9.4225e-003
 667.05400,180.76170, 9.4311e-003
 667.55400,180.94511, 9.4404e-003
 668.05400,181.12924, 9.4483e-003
 668.55400,181.31392, 9.4566e-003
 669.05400,181.49850, 9.4646e-003
 669.55400,181.68282, 9.4723e-003
 670.05400,181.86680, 9.4814e-003
 670.55400,182.05054, 9.4892e-003
 671.05400,182.23371, 9.4974e-003
 671.55400,182.41665, 9.5057e-003
 672.05400,182.59956, 9.5136e-003
 672.55400,182.78250, 9.5213e-003
 673.05400,182.96498, 9.5291e-003
 673.55400,183.14727, 9.5388e-003
 674.05400,183.32909, 9.5482e-003
 674.55400,183.51089, 9.5555e-003
 675.05400,183.69285, 9.5635e-003
 675.55400,183.87507, 9.5710e-003
 676.05400,184.05795, 9.5794e-003
 676.55400,184.24050, 9.5871e-003
 677.05400,184.42366, 9.5955e-003
 677.55400,184.60734, 9.6057e-003
 678.05400,184.79141, 9.6141e-003
 678.55400,184.97647, 9.6225e-003
 679.05400,185.16259, 9.6309e-003
 679.55400,185.34919, 9.6393e-003
 680.05400,185.53671, 9.6478e-003
 680.55400,185.72495, 9.6562e-003
 681.05400,185.91281, 9.6647e-003
 681.55400,186.10164, 9.6735e-003
 682.05400,186.29132, 9.6836e-003
 682.55400,186.48217, 9.6923e-003
 683.05400,186.67416, 9.7008e-003
 683.55400,186.86670, 9.7095e-003
 684.05400,187.05921, 9.7179e-003
 684.55400,187.25185, 9.7281e-003
 685.05400,187.44438, 9.7361e-003
 685.55400,187.63642, 9.7443e-003
 686.05400,187.82757, 9.7533e-003
 686.55400,188.01803, 9.7614e-003
 687.05400,188.20689, 9.7686e-003
 687.55400,188.39432, 9.7767e-003
 688.05400,188.57989, 9.7841e-003
 688.55400,188.76293, 9.7928e-003
 689.05400,188.94545, 9.8009e-003
 689.55400,189.12712, 9.8087e-003
 690.05400,189.30865, 9.8158e-003
 690.55400,189.48981, 9.8249e-003
 691.05400,189.67046, 9.8332e-003
 691.55400,189.85153, 9.8411e-003
 692.05400,190.03310, 9.8501e-003
 692.55400,190.21550, 9.8580e-003
 693.05400,190.39767, 9.8660e-003
 693.55400,190.58008, 9.8744e-003
 694.05400,190.76317, 9.8823e-003
 694.55400,190.94664, 9.8899e-003
 695.05400,191.13146, 9.8994e-003
 695.55400,191.31666, 9.9071e-003
 696.05400,191.50275, 9.9149e-003
 696.55400,191.68924, 9.9231e-003
 697.05400,191.87594, 9.9312e-003
 697.55400,192.06227, 9.9395e-003
 698.05400,192.24780, 9.9472e-003
 698.55400,192.43328, 9.9565e-003
 699.05400,192.61877, 9.9639e-003
 699.55400,192.80451, 9.9720e-003
 700.05400,192.99091, 9.9801e-003
 700.55400,193.17719, 9.9878e-003
 701.05400,193.36375, 9.9964e-003
 701.55400,193.55124, 1.0004e-002
 702.05400,193.73915, 1.0013e-002
 702.55400,193.92754, 1.0022e-002
 703.05400,194.11601, 1.0029e-002
 703.55400,194.30406, 1.0037e-002
 704.05400,194.49204, 1.0046e-002
 704.55400,194.68027, 1.0054e-002
 705.05400,194.86858, 1.0062e-002
 705.55400,195.05754, 1.0071e-002
 706.05400,195.24681, 1.0079e-002
 706.55400,195.43640, 1.0088e-002
 707.05400,195.62525, 1.0096e-002
 707.55400,195.81433, 1.0104e-002
 708.05400,196.00330, 1.0112e-002
 708.55400,196.19266, 1.0121e-002
 709.05400,196.38336, 1.0130e-002
 709.55400,196.57346, 1.0138e-002
 710.05400,196.76365, 1.0146e-002
 710.55400,196.95359, 1.0154e-002
 711.05400,197.14309, 1.0163e-002
 711.55400,197.33272, 1.0171e-002
 712.05400,197.52266, 1.0180e-002
 712.55400,197.71319, 1.0188e-002
 713.05400,197.90359, 1.0195e-002
 713.55400,198.09419, 1.0204e-002
 714.05400,198.28471, 1.0212e-002
 714.55400,198.47494, 1.0221e-002
 715.05400,198.66473, 1.0228e-002
 715.55400,198.85430, 1.0237e-002
 716.05400,199.04369, 1.0245e-002
 716.55400,199.23355, 1.0253e-002
 717.05400,199.42423, 1.0262e-002
 717.55400,199.61516, 1.0271e-002
 718.05400,199.80616, 1.0278e-002
 718.55400,199.99698, 1.0287e-002
 719.05400,200.18726, 1.0295e-002
 719.55400,200.37680, 1.0303e-002
 720.05400,200.56560, 1.0312e-002
 720.55400,200.75383, 1.0320e-002
 721.05400,200.94124, 1.0328e-002
 721.55400,201.12862, 1.0336e-002
 722.05400,201.31631, 1.0344e-002
 722.55400,201.50440, 1.0353e-002
 723.05400,201.69395, 1.0362e-002
 723.55400,201.88431, 1.0370e-002
 724.05400,202.07501, 1.0379e-002
 724.55400,202.26673, 1.0387e-002
 725.05400,202.45825, 1.0396e-002
 725.55400,202.65022, 1.0405e-002
 726.05400,202.84332, 1.0413e-002
 726.55400,203.03729, 1.0421e-002
 727.05400,203.23105, 1.0430e-002
 727.55400,203.42442, 1.0438e-002
 728.05400,203.61672, 1.0447e-002
 728.55400,203.80822, 1.0455e-002
 729.05400,204.00026, 1.0464e-002
 729.55400,204.19292, 1.0471e-002
 730.05400,204.38545, 1.0481e-002
 730.55400,204.57767, 1.0488e-002
 731.05400,204.76974, 1.0497e-002
 731.55400,204.96044, 1.0505e-002
 732.05400,205.15062, 1.0513e-002
 732.55400,205.34168, 1.0522e-002
 733.05400,205.53251, 1.0530e-002
 733.55400,205.72377, 1.0538e-002
 734.05400,205.91525, 1.0547e-002
 734.55400,206.10709, 1.0555e-002
 735.05400,206.29912, 1.0564e-002
 735.55400,206.49149, 1.0572e-002
 736.05400,206.68330, 1.0580e-002
 736.55400,206.87355, 1.0589e-002
 737.05400,207.06420, 1.0597e-002
 737.55400,207.25507, 1.0606e-002
 738.05400,207.44611, 1.0615e-002
 738.55400,207.63777, 1.0624e-002
 739.05400,207.82934, 1.0634e-002
 739.55400,208.02046, 1.0650e-002
 740.05400,208.21239, 1.0659e-002
 740.55400,208.40429, 1.0667e-002
 741.05400,208.59614, 1.0676e-002
 741.55400,208.78772, 1.0684e-002
 742.05400,208.97870, 1.0693e-002
 742.55400,209.16934, 1.0701e-002
 743.05400,209.36089, 1.0710e-002
 743.55400,209.55270, 1.0719e-002
 744.05400,209.74425, 1.0727e-002
 744.55400,209.93587, 1.0736e-002
 745.05400,210.12666, 1.0745e-002
 745.55400,210.31786, 1.0753e-002
 746.05400,210.50978, 1.0762e-002
 746.55400,210.70179, 1.0770e-002
 747.05400,210.89375, 1.0779e-002
 747.55400,211.08532, 1.0787e-002
 748.05400,211.27669, 1.0796e-002
 748.55400,211.46849, 1.0804e-002
 749.05400,211.66041, 1.0813e-002
 749.55400,211.85262, 1.0822e-002
 750.05400,212.04476, 1.0830e-002
 750.55400,212.23709, 1.0839e-002
 751.05400,212.43032, 1.0849e-002
 751.55400,212.62422, 1.0857e-002
 752.05400,212.81907, 1.0867e-002
 752.55400,213.01518, 1.0876e-002
 753.05400,213.21180, 1.0886e-002
 753.55400,213.40938, 1.0895e-002
 754.05400,213.60834, 1.0904e-002
 754.55400,213.80883, 1.0914e-002
 755.05400,214.01003, 1.0926e-002
 755.55400,214.21074, 1.0935e-002
 756.05400,214.41029, 1.0944e-002
 756.55400,214.60819, 1.0953e-002
 757.05400,214.80553, 1.0961e-002
 757.55400,215.00221, 1.0969e-002
 758.05400,215.19785, 1.0978e-002
 758.55400,215.39164, 1.0986e-002
 759.05400,215.58360, 1.1013e-002
 759.55400,215.77431, 1.1021e-002
 760.05400,215.96417, 1.1029e-002
 760.55400,216.15319, 1.1037e-002
 761.05400,216.34145, 1.1046e-002
 761.55400,216.52907, 1.1055e-002
 762.05400,216.71575, 1.1062e-002
 762.55400,216.90256, 1.1071e-002
 763.05400,217.08866, 1.1079e-002
 763.55400,217.27441, 1.1087e-002
 764.05400,217.46019, 1.1095e-002
 764.55400,217.64631, 1.1103e-002
 765.05400,217.83220, 1.1112e-002
 765.55400,218.01808, 1.1120e-002
 766.05400,218.20433, 1.1128e-002
 766.55400,218.39094, 1.1137e-002
 767.05400,218.57828, 1.1145e-002
 767.55400,218.76632, 1.1154e-002
 768.05400,218.95448, 1.1162e-002
 768.55400,219.14305, 1.1171e-002
 769.05400,219.33183, 1.1179e-002
 769.55400,219.52093, 1.1187e-002
 770.05400,219.71020, 1.1196e-002
 770.55400,219.89938, 1.1204e-002
 771.05400,220.08840, 1.1213e-002
 771.55400,220.27756, 1.1221e-002
 772.05400,220.46633, 1.1229e-002
 772.55400,220.65609, 1.1239e-002
 773.05400,220.84641, 1.1247e-002
 773.55400,221.03660, 1.1256e-002
 774.05400,221.22687, 1.1265e-002
 774.55400,221.41623, 1.1273e-002
 775.05400,221.60557, 1.1281e-002
 775.55400,221.79511, 1.1290e-002
 776.05400,221.98502, 1.1298e-002
 776.55400,222.17640, 1.1307e-002
 777.05400,222.36751, 1.1315e-002
 777.55400,222.55946, 1.1324e-002
 778.05400,222.75189, 1.1332e-002
 778.55400,222.94327, 1.1341e-002
 779.05400,223.13520, 1.1349e-002
 779.55400,223.32736, 1.1357e-002
 780.05400,223.51867, 1.1368e-002
 780.55400,223.71006, 1.1376e-002
 781.05400,223.90207, 1.1385e-002
 781.55400,224.09422, 1.1393e-002
 782.05400,224.28774, 1.1401e-002
 782.55400,224.48110, 1.1410e-002
 783.05400,224.67538, 1.1419e-002
 783.55400,224.86957, 1.1428e-002
 784.05400,225.06488, 1.1436e-002
 784.55400,225.26034, 1.1444e-002
 785.05400,225.45487, 1.1453e-002
 785.55400,225.64947, 1.1465e-002
 786.05400,225.84328, 1.1473e-002
 786.55400,226.03763, 1.1482e-002
 787.05400,226.23244, 1.1490e-002
 787.55400,226.42716, 1.1498e-002
 788.05400,226.62269, 1.1507e-002
 788.55400,226.81878, 1.1516e-002
 789.05400,227.01550, 1.1524e-002
 789.55400,227.21253, 1.1533e-002
 790.05400,227.40903, 1.1541e-002
 790.55400,227.60490, 1.1550e-002
 791.05400,227.80129, 1.1558e-002
 791.55400,227.99826, 1.1567e-002
 792.05400,228.19752, 1.1576e-002
 792.55400,228.39840, 1.1585e-002
 793.05400,228.60136, 1.1594e-002
 793.55400,228.80568, 1.1602e-002
 794.05400,229.01168, 1.1611e-002
 794.55400,229.21828, 1.1620e-002
 795.05400,229.42475, 1.1629e-002
 795.55400,229.63170, 1.1640e-002
 796.05400,229.83858, 1.1649e-002
 796.55400,230.04553, 1.1658e-002
 797.05400,230.25255, 1.1666e-002
 797.55400,230.46028, 1.1675e-002
 798.05400,230.66864, 1.1684e-002
 798.55400,230.87785, 1.1693e-002
 799.05400,231.08739, 1.1701e-002
 799.55400,231.29805, 1.1710e-002
 800.05400,231.50896, 1.1722e-002
 800.55400,231.71976, 1.1731e-002
 801.05400,231.93011, 1.1739e-002
 801.55400,232.14001, 1.1748e-002
 802.05400,232.34875, 1.1757e-002
 802.55400,232.55630, 1.1765e-002
 803.05400,232.76300, 1.1774e-002
 803.55400,232.97057, 1.1782e-002
 804.05400,233.17930, 1.1791e-002
 804.55400,233.38790, 1.1802e-002
 805.05400,233.59655, 1.1811e-002
 805.55400,233.80496, 1.1820e-002
 806.05400,234.01428, 1.1829e-002
 806.55400,234.22459, 1.1838e-002
 807.05400,234.43498, 1.1847e-002
 807.55400,234.64633, 1.1856e-002
 808.05400,234.85817, 1.1864e-002
 808.55400,235.07113, 1.1873e-002
 809.05400,235.28326, 1.1882e-002
 809.55400,235.49527, 1.1890e-002
 810.05400,235.70759, 1.1899e-002
 810.55400,235.92106, 1.1908e-002
 811.05400,236.13644, 1.1920e-002
 811.55400,236.35270, 1.1930e-002
 812.05400,236.56951, 1.1938e-002
 812.55400,236.78643, 1.1947e-002
 813.05400,237.00233, 1.1956e-002
 813.55400,237.21712, 1.1965e-002
 814.05400,237.43106, 1.1974e-002
 814.55400,237.64431, 1.1983e-002
 815.05400,237.85758, 1.1992e-002
 815.55400,238.07042, 1.2004e-002
 816.05400,238.28411, 1.2013e-002
 816.55400,238.49824, 1.2022e-002
 817.05400,238.71278, 1.2031e-002
 817.55400,238.92704, 1.2040e-002
 818.05400,239.14149, 1.2049e-002
 818.55400,239.35552, 1.2058e-002
 819.05400,239.56928, 1.2067e-002
 819.55400,239.78247, 1.2075e-002
 820.05400,239.99411, 1.2086e-002
 820.55400,240.20387, 1.2096e-002
 821.05400,240.41207, 1.2104e-002
 821.55400,240.61763, 1.2112e-002
 822.05400,240.82099, 1.2120e-002
 822.55400,241.02180, 1.2128e-002
 823.05400,241.22010, 1.2136e-002
 823.55400,241.41592, 1.2147e-002
 824.05400,241.61084, 1.2155e-002
 824.55400,241.80505, 1.2162e-002
 825.05400,241.99885, 1.2171e-002
 825.55400,242.19234, 1.2179e-002
 826.05400,242.38604, 1.2187e-002
 826.55400,242.57985, 1.2195e-002
 827.05400,242.77517, 1.2206e-002
 827.55400,242.97111, 1.2214e-002
 828.05400,243.16751, 1.2222e-002
 828.55400,243.36426, 1.2232e-002
 829.05400,243.56061, 1.2240e-002
 829.55400,243.75675, 1.2248e-002
 830.05400,243.95294, 1.2259e-002
 830.55400,244.14916, 1.2268e-002
 831.05400,244.34560, 1.2276e-002
 831.55400,244.54179, 1.2284e-002
 832.05400,244.73797, 1.2292e-002
 832.55400,244.93415, 1.2301e-002
 833.05400,245.13038, 1.2309e-002
 833.55400,245.32666, 1.2317e-002
 834.05400,245.52264, 1.2326e-002
 834.55400,245.71856, 1.2334e-002
 835.05400,245.91476, 1.2342e-002
 835.55400,246.11037, 1.2350e-002
 836.05400,246.30628, 1.2358e-002
 836.55400,246.50141, 1.2367e-002
 837.05400,246.69517, 1.2376e-002
 837.55400,246.89028, 1.2384e-002
 838.05400,247.08509, 1.2392e-002
 838.55400,247.28024, 1.2404e-002
 839.05400,247.47597, 1.2412e-002
 839.55400,247.67087, 1.2421e-002
 840.05400,247.86547, 1.2430e-002
 840.55400,248.06014, 1.2438e-002
 841.05400,248.25433, 1.2446e-002
 841.55400,248.44842, 1.2454e-002
 842.05400,248.64274, 1.2463e-002
 842.55400,248.83658, 1.2471e-002
 843.05400,249.03041, 1.2479e-002
 843.55400,249.22419, 1.2488e-002
 844.05400,249.41869, 1.2500e-002
 844.55400,249.61317, 1.2509e-002
 845.05400,249.80723, 1.2517e-002
 845.55400,250.00114, 1.2525e-002
 846.05400,250.19380, 1.2534e-002
 846.55400,250.38665, 1.2542e-002
 847.05400,250.57943, 1.2550e-002
 847.55400,250.77243, 1.2559e-002
 848.05400,250.96519, 1.2567e-002
 848.55400,251.15735, 1.2576e-002
 849.05400,251.34978, 1.2584e-002
 849.55400,251.54183, 1.2593e-002
 850.05400,251.73454, 1.2605e-002
 850.55400,251.92780, 1.2614e-002
 851.05400,252.12158, 1.2622e-002
 851.55400,252.31516, 1.2630e-002
 852.05400,252.50839, 1.2639e-002
 852.55400,252.70057, 1.2647e-002
 853.05400,252.89245, 1.2656e-002
 853.55400,253.08488, 1.2664e-002
 854.05400,253.27721, 1.2676e-002
 854.55400,253.46947, 1.2684e-002
 855.05400,253.66152, 1.2693e-002
 855.55400,253.85400, 1.2701e-002
 856.05400,254.04648, 1.2710e-002
 856.55400,254.23917, 1.2719e-002
 857.05400,254.43193, 1.2727e-002
 857.55400,254.62444, 1.2735e-002
 858.05400,254.81769, 1.2744e-002
 858.55400,255.01062, 1.2753e-002
 859.05400,255.20468, 1.2761e-002
 859.55400,255.39894, 1.2770e-002
 860.05400,255.59315, 1.2778e-002
 860.55400,255.78657, 1.2787e-002
 861.05400,255.97850, 1.2795e-002
 861.55400,256.16993, 1.2804e-002
 862.05400,256.36134, 1.2812e-002
 862.55400,256.55318, 1.2824e-002
 863.05400,256.74573, 1.2833e-002
 863.55400,256.93902, 1.2842e-002
 864.05400,257.13285, 1.2851e-002
 864.55400,257.32680, 1.2859e-002
 865.05400,257.51997, 1.2868e-002
 865.55400,257.71234, 1.2876e-002
 866.05400,257.90442, 1.2885e-002
 866.55400,258.09578, 1.2893e-002
 867.05400,258.28716, 1.2902e-002
 867.55400,258.47855, 1.2911e-002
 868.05400,258.66961, 1.2919e-002
 868.55400,258.86101, 1.2928e-002
 869.05400,259.05241, 1.2937e-002
 869.55400,259.24434, 1.2946e-002
 870.05400,259.43702, 1.2954e-002
 870.55400,259.63172, 1.2967e-002
 871.05400,259.82804, 1.2976e-002
 871.55400,260.02471, 1.2985e-002
 872.05400,260.22338, 1.2995e-002
 872.55400,260.42290, 1.3004e-002
 873.05400,260.62405, 1.3013e-002
 873.55400,260.82726, 1.3023e-002
 874.05400,261.03079, 1.3032e-002
 874.55400,261.23453, 1.3041e-002
 875.05400,261.43670, 1.3051e-002
 875.55400,261.63694, 1.3062e-002
 876.05400,261.83603, 1.3071e-002
 876.55400,262.03445, 1.3080e-002
 877.05400,262.23234, 1.3089e-002
 877.55400,262.42917, 1.3097e-002
 878.05400,262.62441, 1.3106e-002
 878.55400,262.81830, 1.3114e-002
 879.05400,263.01135, 1.3123e-002
 879.55400,263.20387, 1.3131e-002
 880.05400,263.39647, 1.3140e-002
 880.55400,263.58892, 1.3148e-002
 881.05400,263.78121, 1.3157e-002
 881.55400,263.97295, 1.3170e-002
 882.05400,264.16371, 1.3178e-002
 882.55400,264.35293, 1.3187e-002
 883.05400,264.53921, 1.3195e-002
 883.55400,264.72238, 1.3203e-002
 884.05400,264.90350, 1.3211e-002
 884.55400,265.08399, 1.3219e-002
 885.05400,265.26470, 1.3228e-002
 885.55400,265.44723, 1.3240e-002
 886.05400,265.63196, 1.3249e-002
 886.55400,265.81938, 1.3258e-002
 887.05400,266.01053, 1.3268e-002
 887.55400,266.20446, 1.3277e-002
 888.05400,266.40157, 1.3286e-002
 888.55400,266.60054, 1.3299e-002
 889.05400,266.80042, 1.3309e-002
 889.55400,267.00077, 1.3317e-002
 890.05400,267.20083, 1.3326e-002
 890.55400,267.40047, 1.3335e-002
 891.05400,267.59904, 1.3344e-002
 891.55400,267.79664, 1.3352e-002
 892.05400,267.99190, 1.3360e-002
 892.55400,268.18608, 1.3369e-002
 893.05400,268.37915, 1.3378e-002
 893.55400,268.57270, 1.3390e-002
 894.05400,268.76748, 1.3399e-002
 894.55400,268.96322, 1.3408e-002
 895.05400,269.15967, 1.3417e-002
 895.55400,269.35699, 1.3425e-002
 896.05400,269.55521, 1.3438e-002
 896.55400,269.75397, 1.3446e-002
 897.05400,269.95323, 1.3455e-002
 897.55400,270.15250, 1.3464e-002
 898.05400,270.35189, 1.3473e-002
 898.55400,270.55167, 1.3481e-002
 899.05400,270.75144, 1.3490e-002
 899.55400,270.95152, 1.3499e-002
 900.05400,271.15179, 1.3508e-002
 900.55400,271.35249, 1.3516e-002
 901.05400,271.55383, 1.3526e-002
 901.55400,271.75607, 1.3539e-002
 902.05400,271.95898, 1.3548e-002
 902.55400,272.16280, 1.3557e-002
 903.05400,272.36815, 1.3566e-002
 903.55400,272.57585, 1.3575e-002
 904.05400,272.78576, 1.3584e-002
 904.55400,272.99782, 1.3593e-002
 905.05400,273.21096, 1.3602e-002
 905.55400,273.42462, 1.3614e-002
 906.05400,273.63676, 1.3623e-002
 906.55400,273.84828, 1.3632e-002
 907.05400,274.05990, 1.3640e-002
 907.55400,274.27206, 1.3650e-002
 908.05400,274.48587, 1.3661e-002
 908.55400,274.70108, 1.3671e-002
 909.05400,274.91780, 1.3680e-002
 909.55400,275.13708, 1.3690e-002
 910.05400,275.35677, 1.3699e-002
 910.55400,275.57635, 1.3710e-002
 911.05400,275.79390, 1.3720e-002
 911.55400,276.01018, 1.3729e-002
 912.05400,276.22602, 1.3738e-002
 912.55400,276.44178, 1.3747e-002
 913.05400,276.65983, 1.3756e-002
 913.55400,276.87924, 1.3768e-002
 914.05400,277.10054, 1.3779e-002
 914.55400,277.32321, 1.3788e-002
 915.05400,277.54694, 1.3797e-002
 915.55400,277.77376, 1.3807e-002
 916.05400,278.00521, 1.3816e-002
 916.55400,278.24444, 1.3829e-002
 917.05400,278.49299, 1.3839e-002
 917.55400,278.75276, 1.3850e-002
 918.05400,279.02532, 1.3861e-002
 918.55400,279.31181, 1.3872e-002
 919.05400,279.60447, 1.3885e-002
 919.55400,279.88484, 1.3894e-002
 920.05400,280.14485, 1.3902e-002
 920.55400,280.38452, 1.3910e-002
 921.05400,280.61106, 1.3918e-002
 921.55400,280.82967, 1.3925e-002
 922.05400,281.04702, 1.3934e-002
 922.55400,281.26681, 1.3947e-002
 923.05400,281.49289, 1.3958e-002
 923.55400,281.72402, 1.3968e-002
 924.05400,281.95899, 1.3979e-002
 924.55400,282.19271, 1.3989e-002
 925.05400,282.42196, 1.4001e-002
 925.55400,282.64351, 1.4011e-002
 926.05400,282.85603, 1.4019e-002
 926.55400,283.06078, 1.4027e-002
 927.05400,283.25939, 1.4038e-002
 927.55400,283.45356, 1.4046e-002
 928.05400,283.64512, 1.4054e-002
 928.55400,283.83473, 1.4063e-002
 929.05400,284.02347, 1.4072e-002
 929.55400,284.21251, 1.4080e-002
 930.05400,284.40292, 1.4089e-002
 930.55400,284.59583, 1.4098e-002
 931.05400,284.79097, 1.4107e-002
 931.55400,284.98874, 1.4116e-002
 932.05400,285.18788, 1.4129e-002
 932.55400,285.38768, 1.4137e-002
 933.05400,285.58728, 1.4149e-002
 933.55400,285.78599, 1.4158e-002
 934.05400,285.98406, 1.4166e-002
 934.55400,286.18145, 1.4175e-002
 935.05400,286.37944, 1.4184e-002
 935.55400,286.57794, 1.4192e-002
 936.05400,286.77721, 1.4201e-002
 936.55400,286.97847, 1.4210e-002
 937.05400,287.18158, 1.4224e-002
 937.55400,287.38641, 1.4233e-002
 938.05400,287.59143, 1.4242e-002
 938.55400,287.79381, 1.4250e-002
 939.05400,287.99204, 1.4259e-002
 939.55400,288.18619, 1.4269e-002
 940.05400,288.37691, 1.4277e-002
 940.55400,288.56551, 1.4285e-002
 941.05400,288.75429, 1.4294e-002
 941.55400,288.94268, 1.4303e-002
 942.05400,289.13255, 1.4312e-002
 942.55400,289.32339, 1.4324e-002
 943.05400,289.51462, 1.4332e-002
 943.55400,289.70718, 1.4341e-002
 944.05400,289.90066, 1.4350e-002
 944.55400,290.09464, 1.4359e-002
 945.05400,290.28867, 1.4368e-002
 945.55400,290.48204, 1.4375e-002
 946.05400,290.67481, 1.4384e-002
 946.55400,290.86773, 1.4393e-002
 947.05400,291.06096, 1.4401e-002
 947.55400,291.25455, 1.4413e-002
 948.05400,291.44815, 1.4421e-002
 948.55400,291.64124, 1.4430e-002
 949.05400,291.83371, 1.4439e-002
 949.55400,292.02505, 1.4450e-002
 950.05400,292.21564, 1.4459e-002
 950.55400,292.40610, 1.4468e-002
 951.05400,292.59772, 1.4476e-002
 951.55400,292.79145, 1.4486e-002
 952.05400,292.98675, 1.4498e-002
 952.55400,293.18318, 1.4507e-002
 953.05400,293.37931, 1.4516e-002
 953.55400,293.57516, 1.4525e-002
 954.05400,293.76964, 1.4534e-002
 954.55400,293.96104, 1.4546e-002
 955.05400,294.15053, 1.4554e-002
 955.55400,294.33772, 1.4563e-002
 956.05400,294.52447, 1.4572e-002
 956.55400,294.71168, 1.4581e-002
 957.05400,294.89923, 1.4589e-002
 957.55400,295.08722, 1.4601e-002
 958.05400,295.27624, 1.4607e-002
 958.55400,295.46567, 1.4616e-002
 959.05400,295.65531, 1.4625e-002
 959.55400,295.84446, 1.4635e-002
 960.05400,296.03207, 1.4643e-002
 960.55400,296.21846, 1.4652e-002
 961.05400,296.40336, 1.4661e-002
 961.55400,296.58785, 1.4670e-002
 962.05400,296.77231, 1.4679e-002
 962.55400,296.95709, 1.4688e-002
 963.05400,297.14200, 1.4697e-002
 963.55400,297.32653, 1.4706e-002
 964.05400,297.51101, 1.4715e-002
 964.55400,297.69567, 1.4724e-002
 965.05400,297.88090, 1.4734e-002
 965.55400,298.06757, 1.4743e-002
 966.05400,298.25576, 1.4754e-002
 966.55400,298.44564, 1.4763e-002
 967.05400,298.63672, 1.4773e-002
 967.55400,298.82804, 1.4782e-002
 968.05400,299.01912, 1.4791e-002
 968.55400,299.20949, 1.4801e-002
 969.05400,299.39909, 1.4812e-002
 969.55400,299.58841, 1.4821e-002
 970.05400,299.77795, 1.4830e-002
 970.55400,299.96823, 1.4839e-002
 971.05400,300.15909, 1.4850e-002
 971.55400,300.35031, 1.4859e-002
 972.05400,300.54167, 1.4871e-002
 972.55400,300.73390, 1.4880e-002
 973.05400,300.92561, 1.4889e-002
 973.55400,301.11783, 1.4899e-002
 974.05400,301.31006, 1.4909e-002
 974.55400,301.50177, 1.4918e-002
 975.05400,301.69296, 1.4930e-002
 975.55400,301.88322, 1.4940e-002
 976.05400,302.07206, 1.4949e-002
 976.55400,302.26092, 1.4959e-002
 977.05400,302.44996, 1.4969e-002
 977.55400,302.63919, 1.4978e-002
 978.05400,302.82855, 1.4987e-002
 978.55400,303.01705, 1.4999e-002
 979.05400,303.20505, 1.5009e-002
 979.55400,303.39253, 1.5018e-002
 980.05400,303.57785, 1.5027e-002
 980.55400,303.76157, 1.5037e-002
 981.05400,303.94323, 1.5046e-002
 981.55400,304.12375, 1.5056e-002
 982.05400,304.30383, 1.5064e-002
 982.55400,304.48372, 1.5075e-002
 983.05400,304.66428, 1.5085e-002
 983.55400,304.84593, 1.5093e-002
 984.05400,305.02860, 1.5103e-002
 984.55400,305.21189, 1.5114e-002
 985.05400,305.39562, 1.5124e-002
 985.55400,305.57933, 1.5133e-002
 986.05400,305.76321, 1.5144e-002
 986.55400,305.94662, 1.5154e-002
 987.05400,306.12860, 1.5163e-002
 987.55400,306.30786, 1.5171e-002
 988.05400,306.48470, 1.5180e-002
 988.55400,306.66071, 1.5189e-002
 989.05400,306.83623, 1.5201e-002
 989.55400,307.01369, 1.5210e-002
 990.05400,307.19356, 1.5221e-002
 990.55400,307.37490, 1.5233e-002
 991.05400,307.55924, 1.5242e-002
 991.55400,307.74578, 1.5252e-002
 992.05400,307.93417, 1.5262e-002
 992.55400,308.12510, 1.5273e-002
 993.05400,308.31714, 1.5285e-002
 993.55400,308.50972, 1.5294e-002
 994.05400,308.70133, 1.5303e-002
 994.55400,308.89000, 1.5313e-002
 995.05400,309.07487, 1.5322e-002
 995.55400,309.25609, 1.5330e-002
 996.05400,309.43482, 1.5343e-002
 996.55400,309.61162, 1.5351e-002
 997.05400,309.78727, 1.5360e-002
 997.55400,309.96239, 1.5369e-002
 998.05400,310.13782, 1.5379e-002
 998.55400,310.31413, 1.5391e-002
 999.05400,310.49220, 1.5401e-002
 999.55400,310.67188, 1.5411e-002
1000.05400,310.85266, 1.5420e-002
1000.55400,311.03440, 1.5430e-002
1001.05400,311.21620, 1.5442e-002
1001.55400,311.39771, 1.5452e-002
1002.05400,311.57858, 1.5461e-002
1002.55400,311.75934, 1.5470e-002
1003.05400,311.94055, 1.5480e-002
1003.55400,312.12287, 1.5490e-002
1004.05400,312.30555, 1.5502e-002
1004.55400,312.48868, 1.5512e-002
1005.05400,312.67206, 1.5521e-002
1005.55400,312.85549, 1.5531e-002
1006.05400,313.03928, 1.5543e-002
1006.55400,313.22300, 1.5553e-002
1007.05400,313.40689, 1.5562e-002
1007.55400,313.59055, 1.5572e-002
1008.05400,313.77438, 1.5582e-002
1008.55400,313.95856, 1.5595e-002
1009.05400,314.14286, 1.5604e-002
1009.55400,314.32778, 1.5616e-002
1010.05400,314.51263, 1.5626e-002
1010.55400,314.69799, 1.5637e-002
1011.05400,314.88321, 1.5646e-002
1011.55400,315.06907, 1.5656e-002
1012.05400,315.25578, 1.5666e-002
1012.55400,315.44277, 1.5676e-002
1013.05400,315.63072, 1.5688e-002
1013.55400,315.81871, 1.5699e-002
1014.05400,316.00735, 1.5708e-002
1014.55400,316.19559, 1.5720e-002
1015.05400,316.38325, 1.5730e-002
1015.55400,316.56990, 1.5740e-002
1016.05400,316.75451, 1.5749e-002
1016.55400,316.93869, 1.5758e-002
1017.05400,317.12256, 1.5768e-002
1017.55400,317.30601, 1.5781e-002
1018.05400,317.49009, 1.5791e-002
1018.55400,317.67443, 1.5800e-002
1019.05400,317.85911, 1.5812e-002
1019.55400,318.04567, 1.5823e-002
1020.05400,318.23401, 1.5833e-002
1020.55400,318.42313, 1.5843e-002
1021.05400,318.61270, 1.5854e-002
1021.55400,318.80140, 1.5866e-002
1022.05400,318.98918, 1.5876e-002
1022.55400,319.17476, 1.5888e-002
1023.05400,319.35599, 1.5898e-002
1023.55400,319.53258, 1.5909e-002
1024.05400,319.70521, 1.5918e-002
1024.55400,319.87751, 1.5928e-002
1025.05400,320.05232, 1.5940e-002
1025.55400,320.23066, 1.5951e-002
1026.05400,320.41315, 1.5962e-002
1026.55400,320.59849, 1.5974e-002
1027.05400,320.78560, 1.5984e-002
1027.55400,320.97509, 1.5995e-002
1028.05400,321.16584, 1.6007e-002
1028.55400,321.35861, 1.6017e-002
1029.05400,321.55399, 1.6027e-002
1029.55400,321.75230, 1.6039e-002
1030.05400,321.95243, 1.6050e-002
1030.55400,322.15222, 1.6060e-002
1031.05400,322.34966, 1.6072e-002
1031.55400,322.54311, 1.6082e-002
1032.05400,322.73163, 1.6091e-002
1032.55400,322.91520, 1.6100e-002
1033.05400,323.09611, 1.6109e-002
1033.55400,323.27521, 1.6122e-002
1034.05400,323.45600, 1.6132e-002
1034.55400,323.63939, 1.6142e-002
1035.05400,323.82436, 1.6152e-002
1035.55400,324.01117, 1.6165e-002
1036.05400,324.19819, 1.6175e-002
1036.55400,324.38356, 1.6184e-002
1037.05400,324.56582, 1.6196e-002
1037.55400,324.74562, 1.6205e-002
1038.05400,324.92340, 1.6215e-002
1038.55400,325.10130, 1.6225e-002
1039.05400,325.28030, 1.6235e-002
1039.55400,325.46059, 1.6247e-002

