#EXPORTTYPE:           ,DATA ALL                                                                                      
#FILE:                 ,moonstoneSam3.ngb-sle                                                                         
#FORMAT:               ,NETZSCH5                                                                                      
#FTYPE:                ,ANSI                                                                                          
#IDENTITY:             ,moonstone 3 short                                                                             
#DECIMAL:              ,POINT                                                                                         
#SEPARATOR:            ,COMMA                                                                                         
#MTYPE:                ,DIL                                                                                           
#INSTRUMENT:           ,NETZSCH DIL 402C                                                                              
#PROJECT:              ,feldspar                                                                                      
#DATE/TIME:            ,9/16/2019 9:41:48 AM (UTC-5)                                                                  
#CORR. FILE:           ,                                                                                              
#TEMPCAL:              ,TCALZERO.TMX                                                                                  
#LABORATORY:           ,Mineral Physics                                                                               
#OPERATOR:             ,PAG                                                                                           
#REMARK:               ,bare, norm start, for oligoclase, moonstone #3 short and reaonably thin. rectancgle, large up 
#SAMPLE:               ,moonstone 3 fresh                                                                             
#SAMPLE LENGTH /mm:    ,10.090                                                                                        
#MATERIAL:             ,sapphire stnd                                                                                 
#MEASMODE:             ,Standard Expansion                                                                            
#PURGE GAS 1:          ,ARGON                                                                                         
#FLOW RATE 1 /(ml/min):,75                                                                                            
#M.RANGE /µm:          ,500                                                                                           
#CORR. CODE:           ,010                                                                                           
#RANGE:                ,20.0°C/3.0(K/min)/800.0°C                                                                     
#SEGMENT:              ,S1/1                                                                                          
#SEG. 1:               ,20.0°C/3.0(K/min)/800.0°C                                                                     

##Temp./°C,Time/min,dL/Lo
 22.42400,  0.00000, 2.1575e-005
 22.92400,  4.43830, 9.7333e-006
 23.42400,  4.83919, 3.7967e-006
 23.92400,  5.11434,-8.2571e-007
 24.42400,  5.33347,-3.9641e-006
 24.92400,  5.51940,-6.6131e-006
 25.42400,  5.68534,-8.4632e-006
 25.92400,  5.83804,-9.7243e-006
 26.42400,  5.98029,-1.0512e-005
 26.92400,  6.11530,-1.0815e-005
 27.42400,  6.24422,-1.0877e-005
 27.92400,  6.36780,-1.0261e-005
 28.42400,  6.48693,-9.2396e-006
 28.92400,  6.60255,-7.6205e-006
 29.42400,  6.71527,-5.7516e-006
 29.92400,  6.82544,-3.6703e-006
 30.42400,  6.93376,-1.2460e-006
 30.92400,  7.04012, 1.8573e-006
 31.42400,  7.14526, 5.0667e-006
 31.92400,  7.24942, 8.6532e-006
 32.42400,  7.35252, 1.2935e-005
 32.92400,  7.45533, 1.6666e-005
 33.42400,  7.55778, 2.1674e-005
 33.92400,  7.65973, 2.5836e-005
 34.42400,  7.76124, 3.1209e-005
 34.92400,  7.86249, 3.6231e-005
 35.42400,  7.96372, 4.2324e-005
 35.92400,  8.06498, 4.8065e-005
 36.42400,  8.16577, 5.4193e-005
 36.92400,  8.26614, 6.0481e-005
 37.42400,  8.36705, 6.6927e-005
 37.92400,  8.46841, 7.3957e-005
 38.42400,  8.57004, 8.1147e-005
 38.92400,  8.67152, 8.8125e-005
 39.42400,  8.77284, 9.5343e-005
 39.92400,  8.87399, 1.0311e-004
 40.42400,  8.97529, 1.1033e-004
 40.92400,  9.07615, 1.1867e-004
 41.42400,  9.17685, 1.2610e-004
 41.92400,  9.27728, 1.3456e-004
 42.42400,  9.37763, 1.4237e-004
 42.92400,  9.47793, 1.5041e-004
 43.42400,  9.57836, 1.5882e-004
 43.92400,  9.67877, 1.6690e-004
 44.42400,  9.77902, 1.7525e-004
 44.92400,  9.87896, 1.8369e-004
 45.42400,  9.97879, 1.9208e-004
 45.92400, 10.07844, 1.9993e-004
 46.42400, 10.17782, 2.0734e-004
 46.92400, 10.27697, 2.1453e-004
 47.42400, 10.37575, 2.2187e-004
 47.92400, 10.47420, 2.2992e-004
 48.42400, 10.57244, 2.3787e-004
 48.92400, 10.67035, 2.4618e-004
 49.42400, 10.76786, 2.5424e-004
 49.92400, 10.86511, 2.6248e-004
 50.42400, 10.96196, 2.6975e-004
 50.92400, 11.05859, 2.7768e-004
 51.42400, 11.15493, 2.8577e-004
 51.92400, 11.25106, 2.9373e-004
 52.42400, 11.34704, 3.0217e-004
 52.92400, 11.44289, 3.0944e-004
 53.42400, 11.53835, 3.1715e-004
 53.92400, 11.63374, 3.2477e-004
 54.42400, 11.72874, 3.3279e-004
 54.92400, 11.82373, 3.4074e-004
 55.42400, 11.91840, 3.4846e-004
 55.92400, 12.01276, 3.5659e-004
 56.42400, 12.10682, 3.6480e-004
 56.92400, 12.20072, 3.7306e-004
 57.42400, 12.29470, 3.8077e-004
 57.92400, 12.38841, 3.8920e-004
 58.42400, 12.48189, 3.9667e-004
 58.92400, 12.57532, 4.0503e-004
 59.42400, 12.66849, 4.1302e-004
 59.92400, 12.76164, 4.2183e-004
 60.42400, 12.85460, 4.3075e-004
 60.92400, 12.94758, 4.3934e-004
 61.42400, 13.04017, 4.4789e-004
 61.92400, 13.13276, 4.5717e-004
 62.42400, 13.22527, 4.6591e-004
 62.92400, 13.31776, 4.7526e-004
 63.42400, 13.41032, 4.8425e-004
 63.92400, 13.50298, 4.9371e-004
 64.42400, 13.59548, 5.0238e-004
 64.92400, 13.68799, 5.1123e-004
 65.42400, 13.78079, 5.2024e-004
 65.92400, 13.87374, 5.2999e-004
 66.42400, 13.96674, 5.3903e-004
 66.92400, 14.05980, 5.4864e-004
 67.42400, 14.15283, 5.5799e-004
 67.92400, 14.24593, 5.6753e-004
 68.42400, 14.33919, 5.7738e-004
 68.92400, 14.43254, 5.8712e-004
 69.42400, 14.52579, 5.9683e-004
 69.92400, 14.61905, 6.0720e-004
 70.42400, 14.71251, 6.1761e-004
 70.92400, 14.80617, 6.2714e-004
 71.42400, 14.90024, 6.3772e-004
 71.92400, 14.99435, 6.4896e-004
 72.42400, 15.08841, 6.5945e-004
 72.92400, 15.18267, 6.7058e-004
 73.42400, 15.27708, 6.8116e-004
 73.92400, 15.37148, 6.9275e-004
 74.42400, 15.46599, 7.0345e-004
 74.92400, 15.56004, 7.1339e-004
 75.42400, 15.65423, 7.2363e-004
 75.92400, 15.74869, 7.3455e-004
 76.42400, 15.84327, 7.4504e-004
 76.92400, 15.93786, 7.5546e-004
 77.42400, 16.03255, 7.6512e-004
 77.92400, 16.12732, 7.7608e-004
 78.42400, 16.22216, 7.8601e-004
 78.92400, 16.31716, 7.9668e-004
 79.42400, 16.41223, 8.0715e-004
 79.92400, 16.50730, 8.1746e-004
 80.42400, 16.60216, 8.2864e-004
 80.92400, 16.69712, 8.3901e-004
 81.42400, 16.79231, 8.5000e-004
 81.92400, 16.88775, 8.6201e-004
 82.42400, 16.98335, 8.7338e-004
 82.92400, 17.07922, 8.8524e-004
 83.42400, 17.17512, 8.9657e-004
 83.92400, 17.27134, 9.0748e-004
 84.42400, 17.36776, 9.1821e-004
 84.92400, 17.46428, 9.2866e-004
 85.42400, 17.56080, 9.3947e-004
 85.92400, 17.65733, 9.4970e-004
 86.42400, 17.75382, 9.6068e-004
 86.92400, 17.85060, 9.7068e-004
 87.42400, 17.94731, 9.8202e-004
 87.92400, 18.04427, 9.9233e-004
 88.42400, 18.14140, 1.0036e-003
 88.92400, 18.23862, 1.0143e-003
 89.42400, 18.33584, 1.0253e-003
 89.92400, 18.43310, 1.0357e-003
 90.42400, 18.53049, 1.0470e-003
 90.92400, 18.62788, 1.0590e-003
 91.42400, 18.72535, 1.0708e-003
 91.92400, 18.82275, 1.0828e-003
 92.42400, 18.92032, 1.0946e-003
 92.92400, 19.01787, 1.1069e-003
 93.42400, 19.11581, 1.1198e-003
 93.92400, 19.21370, 1.1316e-003
 94.42400, 19.31177, 1.1441e-003
 94.92400, 19.41009, 1.1564e-003
 95.42400, 19.50858, 1.1684e-003
 95.92400, 19.60711, 1.1807e-003
 96.42400, 19.70589, 1.1927e-003
 96.92400, 19.80476, 1.2046e-003
 97.42400, 19.90388, 1.2156e-003
 97.92400, 20.00283, 1.2274e-003
 98.42400, 20.10209, 1.2390e-003
 98.92400, 20.20131, 1.2509e-003
 99.42400, 20.30066, 1.2629e-003
 99.92400, 20.40022, 1.2749e-003
100.42400, 20.49995, 1.2870e-003
100.92400, 20.59963, 1.2992e-003
101.42400, 20.69961, 1.3116e-003
101.92400, 20.79962, 1.3235e-003
102.42400, 20.89988, 1.3360e-003
102.92400, 21.00022, 1.3477e-003
103.42400, 21.10057, 1.3592e-003
103.92400, 21.20119, 1.3697e-003
104.42400, 21.30193, 1.3804e-003
104.92400, 21.40278, 1.3915e-003
105.42400, 21.50360, 1.4018e-003
105.92400, 21.60449, 1.4131e-003
106.42400, 21.70552, 1.4236e-003
106.92400, 21.80669, 1.4348e-003
107.42400, 21.90762, 1.4453e-003
107.92400, 22.00867, 1.4561e-003
108.42400, 22.10979, 1.4672e-003
108.92400, 22.21067, 1.4775e-003
109.42400, 22.31171, 1.4876e-003
109.92400, 22.41280, 1.4988e-003
110.42400, 22.51390, 1.5094e-003
110.92400, 22.61522, 1.5198e-003
111.42400, 22.71649, 1.5307e-003
111.92400, 22.81790, 1.5417e-003
112.42400, 22.91985, 1.5523e-003
112.92400, 23.02159, 1.5633e-003
113.42400, 23.12349, 1.5736e-003
113.92400, 23.22551, 1.5840e-003
114.42400, 23.32733, 1.5946e-003
114.92400, 23.42934, 1.6042e-003
115.42400, 23.53132, 1.6137e-003
115.92400, 23.63325, 1.6242e-003
116.42400, 23.73547, 1.6348e-003
116.92400, 23.83754, 1.6457e-003
117.42400, 23.93967, 1.6570e-003
117.92400, 24.04213, 1.6677e-003
118.42400, 24.14466, 1.6787e-003
118.92400, 24.24729, 1.6898e-003
119.42400, 24.34967, 1.7007e-003
119.92400, 24.45224, 1.7119e-003
120.42400, 24.55486, 1.7221e-003
120.92400, 24.65763, 1.7332e-003
121.42400, 24.76037, 1.7443e-003
121.92400, 24.86309, 1.7550e-003
122.42400, 24.96606, 1.7653e-003
122.92400, 25.06939, 1.7764e-003
123.42400, 25.17282, 1.7867e-003
123.92400, 25.27649, 1.7975e-003
124.42400, 25.38032, 1.8083e-003
124.92400, 25.48439, 1.8191e-003
125.42400, 25.58841, 1.8300e-003
125.92400, 25.69221, 1.8409e-003
126.42400, 25.79607, 1.8522e-003
126.92400, 25.89994, 1.8632e-003
127.42400, 26.00398, 1.8746e-003
127.92400, 26.10791, 1.8856e-003
128.42400, 26.21186, 1.8970e-003
128.92400, 26.31604, 1.9082e-003
129.42400, 26.42049, 1.9190e-003
129.92400, 26.52495, 1.9303e-003
130.42400, 26.62937, 1.9411e-003
130.92400, 26.73369, 1.9520e-003
131.42400, 26.83810, 1.9636e-003
131.92400, 26.94277, 1.9744e-003
132.42400, 27.04755, 1.9855e-003
132.92400, 27.15236, 1.9964e-003
133.42400, 27.25743, 2.0070e-003
133.92400, 27.36269, 2.0182e-003
134.42400, 27.46800, 2.0294e-003
134.92400, 27.57352, 2.0406e-003
135.42400, 27.67912, 2.0514e-003
135.92400, 27.78485, 2.0620e-003
136.42400, 27.89036, 2.0732e-003
136.92400, 27.99609, 2.0845e-003
137.42400, 28.10194, 2.0944e-003
137.92400, 28.20754, 2.1057e-003
138.42400, 28.31306, 2.1164e-003
138.92400, 28.41850, 2.1268e-003
139.42400, 28.52385, 2.1370e-003
139.92400, 28.62951, 2.1473e-003
140.42400, 28.73492, 2.1579e-003
140.92400, 28.84038, 2.1691e-003
141.42400, 28.94634, 2.1797e-003
141.92400, 29.05218, 2.1901e-003
142.42400, 29.15822, 2.2009e-003
142.92400, 29.26444, 2.2119e-003
143.42400, 29.37122, 2.2233e-003
143.92400, 29.47795, 2.2345e-003
144.42400, 29.58472, 2.2455e-003
144.92400, 29.69174, 2.2566e-003
145.42400, 29.79887, 2.2674e-003
145.92400, 29.90597, 2.2790e-003
146.42400, 30.01263, 2.2900e-003
146.92400, 30.11921, 2.3016e-003
147.42400, 30.22572, 2.3124e-003
147.92400, 30.33219, 2.3238e-003
148.42400, 30.43868, 2.3350e-003
148.92400, 30.54514, 2.3459e-003
149.42400, 30.65186, 2.3571e-003
149.92400, 30.75897, 2.3687e-003
150.42400, 30.86611, 2.3797e-003
150.92400, 30.97357, 2.3905e-003
151.42400, 31.08106, 2.4018e-003
151.92400, 31.18861, 2.4128e-003
152.42400, 31.29627, 2.4239e-003
152.92400, 31.40399, 2.4355e-003
153.42400, 31.51172, 2.4473e-003
153.92400, 31.61954, 2.4583e-003
154.42400, 31.72737, 2.4697e-003
154.92400, 31.83534, 2.4806e-003
155.42400, 31.94350, 2.4920e-003
155.92400, 32.05162, 2.5032e-003
156.42400, 32.15968, 2.5139e-003
156.92400, 32.26781, 2.5249e-003
157.42400, 32.37593, 2.5364e-003
157.92400, 32.48407, 2.5475e-003
158.42400, 32.59190, 2.5580e-003
158.92400, 32.69970, 2.5691e-003
159.42400, 32.80764, 2.5803e-003
159.92400, 32.91552, 2.5908e-003
160.42400, 33.02348, 2.6022e-003
160.92400, 33.13129, 2.6137e-003
161.42400, 33.23943, 2.6246e-003
161.92400, 33.34775, 2.6356e-003
162.42400, 33.45613, 2.6464e-003
162.92400, 33.56473, 2.6573e-003
163.42400, 33.67347, 2.6682e-003
163.92400, 33.78246, 2.6786e-003
164.42400, 33.89157, 2.6902e-003
164.92400, 34.00067, 2.7012e-003
165.42400, 34.11003, 2.7124e-003
165.92400, 34.21945, 2.7238e-003
166.42400, 34.32872, 2.7341e-003
166.92400, 34.43810, 2.7455e-003
167.42400, 34.54765, 2.7567e-003
167.92400, 34.65724, 2.7680e-003
168.42400, 34.76689, 2.7783e-003
168.92400, 34.87675, 2.7894e-003
169.42400, 34.98687, 2.8004e-003
169.92400, 35.09714, 2.8112e-003
170.42400, 35.20740, 2.8224e-003
170.92400, 35.31779, 2.8330e-003
171.42400, 35.42821, 2.8443e-003
171.92400, 35.53849, 2.8555e-003
172.42400, 35.64861, 2.8669e-003
172.92400, 35.75874, 2.8780e-003
173.42400, 35.86894, 2.8895e-003
173.92400, 35.97906, 2.9005e-003
174.42400, 36.08917, 2.9122e-003
174.92400, 36.19924, 2.9236e-003
175.42400, 36.30957, 2.9345e-003
175.92400, 36.41989, 2.9461e-003
176.42400, 36.53045, 2.9572e-003
176.92400, 36.64110, 2.9682e-003
177.42400, 36.75180, 2.9788e-003
177.92400, 36.86261, 2.9903e-003
178.42400, 36.97354, 3.0010e-003
178.92400, 37.08460, 3.0122e-003
179.42400, 37.19549, 3.0232e-003
179.92400, 37.30643, 3.0349e-003
180.42400, 37.41723, 3.0439e-003
180.92400, 37.52820, 3.0548e-003
181.42400, 37.63913, 3.0657e-003
181.92400, 37.75010, 3.0772e-003
182.42400, 37.86105, 3.0884e-003
182.92400, 37.97204, 3.0993e-003
183.42400, 38.08293, 3.1105e-003
183.92400, 38.19417, 3.1222e-003
184.42400, 38.30542, 3.1328e-003
184.92400, 38.41684, 3.1436e-003
185.42400, 38.52822, 3.1543e-003
185.92400, 38.63988, 3.1649e-003
186.42400, 38.75153, 3.1759e-003
186.92400, 38.86332, 3.1870e-003
187.42400, 38.97520, 3.1983e-003
187.92400, 39.08720, 3.2093e-003
188.42400, 39.19931, 3.2199e-003
188.92400, 39.31199, 3.2306e-003
189.42400, 39.42470, 3.2418e-003
189.92400, 39.53750, 3.2525e-003
190.42400, 39.65060, 3.2624e-003
190.92400, 39.76343, 3.2722e-003
191.42400, 39.87636, 3.2832e-003
191.92400, 39.98921, 3.2944e-003
192.42400, 40.10201, 3.3053e-003
192.92400, 40.21485, 3.3159e-003
193.42400, 40.32760, 3.3268e-003
193.92400, 40.44072, 3.3374e-003
194.42400, 40.55389, 3.3485e-003
194.92400, 40.66688, 3.3597e-003
195.42400, 40.77978, 3.3707e-003
195.92400, 40.89293, 3.3811e-003
196.42400, 41.00605, 3.3918e-003
196.92400, 41.11920, 3.4015e-003
197.42400, 41.23243, 3.4094e-003
197.92400, 41.34589, 3.4199e-003
198.42400, 41.45976, 3.4303e-003
198.92400, 41.57369, 3.4412e-003
199.42400, 41.68779, 3.4528e-003
199.92400, 41.80201, 3.4634e-003
200.42400, 41.91604, 3.4751e-003
200.92400, 42.03005, 3.4860e-003
201.42400, 42.14413, 3.4971e-003
201.92400, 42.25835, 3.5086e-003
202.42400, 42.37266, 3.5199e-003
202.92400, 42.48695, 3.5310e-003
203.42400, 42.60164, 3.5422e-003
203.92400, 42.71663, 3.5532e-003
204.42400, 42.83169, 3.5647e-003
204.92400, 42.94675, 3.5760e-003
205.42400, 43.06187, 3.5873e-003
205.92400, 43.17718, 3.5985e-003
206.42400, 43.29229, 3.6096e-003
206.92400, 43.40743, 3.6208e-003
207.42400, 43.52260, 3.6323e-003
207.92400, 43.63772, 3.6436e-003
208.42400, 43.75303, 3.6550e-003
208.92400, 43.86825, 3.6657e-003
209.42400, 43.98371, 3.6770e-003
209.92400, 44.09903, 3.6874e-003
210.42400, 44.21458, 3.6981e-003
210.92400, 44.33022, 3.7095e-003
211.42400, 44.44610, 3.7195e-003
211.92400, 44.56238, 3.7300e-003
212.42400, 44.67864, 3.7416e-003
212.92400, 44.79534, 3.7525e-003
213.42400, 44.91213, 3.7639e-003
213.92400, 45.02880, 3.7751e-003
214.42400, 45.14574, 3.7860e-003
214.92400, 45.26241, 3.7970e-003
215.42400, 45.37905, 3.8082e-003
215.92400, 45.49545, 3.8190e-003
216.42400, 45.61177, 3.8301e-003
216.92400, 45.72810, 3.8408e-003
217.42400, 45.84433, 3.8509e-003
217.92400, 45.96053, 3.8617e-003
218.42400, 46.07701, 3.8732e-003
218.92400, 46.19374, 3.8837e-003
219.42400, 46.31070, 3.8956e-003
219.92400, 46.42775, 3.9067e-003
220.42400, 46.54494, 3.9177e-003
220.92400, 46.66225, 3.9298e-003
221.42400, 46.77960, 3.9411e-003
221.92400, 46.89714, 3.9528e-003
222.42400, 47.01466, 3.9646e-003
222.92400, 47.13223, 3.9763e-003
223.42400, 47.24992, 3.9877e-003
223.92400, 47.36765, 3.9995e-003
224.42400, 47.48551, 4.0114e-003
224.92400, 47.60336, 4.0232e-003
225.42400, 47.72140, 4.0342e-003
225.92400, 47.83953, 4.0460e-003
226.42400, 47.95795, 4.0581e-003
226.92400, 48.07660, 4.0691e-003
227.42400, 48.19543, 4.0807e-003
227.92400, 48.31466, 4.0927e-003
228.42400, 48.43399, 4.1045e-003
228.92400, 48.55373, 4.1160e-003
229.42400, 48.67371, 4.1275e-003
229.92400, 48.79387, 4.1387e-003
230.42400, 48.91405, 4.1504e-003
230.92400, 49.03423, 4.1627e-003
231.42400, 49.15472, 4.1745e-003
231.92400, 49.27516, 4.1863e-003
232.42400, 49.39568, 4.1980e-003
232.92400, 49.51640, 4.2091e-003
233.42400, 49.63727, 4.2207e-003
233.92400, 49.75838, 4.2321e-003
234.42400, 49.87948, 4.2435e-003
234.92400, 50.00069, 4.2542e-003
235.42400, 50.12154, 4.2660e-003
235.92400, 50.24234, 4.2775e-003
236.42400, 50.36280, 4.2887e-003
236.92400, 50.48314, 4.2999e-003
237.42400, 50.60321, 4.3108e-003
237.92400, 50.72277, 4.3214e-003
238.42400, 50.84217, 4.3326e-003
238.92400, 50.96110, 4.3434e-003
239.42400, 51.07987, 4.3541e-003
239.92400, 51.19812, 4.3640e-003
240.42400, 51.31583, 4.3747e-003
240.92400, 51.43344, 4.3853e-003
241.42400, 51.55062, 4.3958e-003
241.92400, 51.66747, 4.4058e-003
242.42400, 51.78392, 4.4168e-003
242.92400, 51.90002, 4.4276e-003
243.42400, 52.01602, 4.4375e-003
243.92400, 52.13170, 4.4487e-003
244.42400, 52.24711, 4.4590e-003
244.92400, 52.36240, 4.4694e-003
245.42400, 52.47746, 4.4794e-003
245.92400, 52.59235, 4.4901e-003
246.42400, 52.70703, 4.5002e-003
246.92400, 52.82141, 4.5105e-003
247.42400, 52.93592, 4.5204e-003
247.92400, 53.05023, 4.5280e-003
248.42400, 53.16436, 4.5306e-003
248.92400, 53.27843, 4.5249e-003
249.42400, 53.39244, 4.5237e-003
249.92400, 53.50674, 4.5307e-003
250.42400, 53.62109, 4.5376e-003
250.92400, 53.73533, 4.5441e-003
251.42400, 53.84989, 4.5493e-003
251.92400, 53.96460, 4.5557e-003
252.42400, 54.07954, 4.5645e-003
252.92400, 54.19452, 4.5734e-003
253.42400, 54.30981, 4.5826e-003
253.92400, 54.42539, 4.5921e-003
254.42400, 54.54091, 4.6025e-003
254.92400, 54.65680, 4.6139e-003
255.42400, 54.77294, 4.6245e-003
255.92400, 54.88920, 4.6351e-003
256.42400, 55.00530, 4.6462e-003
256.92400, 55.12150, 4.6574e-003
257.42400, 55.23816, 4.6688e-003
257.92400, 55.35499, 4.6791e-003
258.42400, 55.47183, 4.6900e-003
258.92400, 55.58909, 4.7017e-003
259.42400, 55.70703, 4.7127e-003
259.92400, 55.82517, 4.7238e-003
260.42400, 55.94336, 4.7350e-003
260.92400, 56.06167, 4.7463e-003
261.42400, 56.18027, 4.7577e-003
261.92400, 56.29902, 4.7687e-003
262.42400, 56.41771, 4.7807e-003
262.92400, 56.53667, 4.7915e-003
263.42400, 56.65602, 4.8024e-003
263.92400, 56.77563, 4.8141e-003
264.42400, 56.89560, 4.8253e-003
264.92400, 57.01574, 4.8358e-003
265.42400, 57.13618, 4.8469e-003
265.92400, 57.25685, 4.8588e-003
266.42400, 57.37765, 4.8695e-003
266.92400, 57.49857, 4.8801e-003
267.42400, 57.61978, 4.8913e-003
267.92400, 57.74084, 4.9027e-003
268.42400, 57.86222, 4.9139e-003
268.92400, 57.98385, 4.9246e-003
269.42400, 58.10561, 4.9366e-003
269.92400, 58.22752, 4.9480e-003
270.42400, 58.34941, 4.9588e-003
270.92400, 58.47158, 4.9709e-003
271.42400, 58.59375, 4.9818e-003
271.92400, 58.71603, 4.9932e-003
272.42400, 58.83848, 5.0051e-003
272.92400, 58.96118, 5.0159e-003
273.42400, 59.08411, 5.0271e-003
273.92400, 59.20721, 5.0390e-003
274.42400, 59.33077, 5.0501e-003
274.92400, 59.45431, 5.0624e-003
275.42400, 59.57804, 5.0734e-003
275.92400, 59.70203, 5.0848e-003
276.42400, 59.82627, 5.0958e-003
276.92400, 59.95064, 5.1070e-003
277.42400, 60.07520, 5.1183e-003
277.92400, 60.20011, 5.1293e-003
278.42400, 60.32528, 5.1412e-003
278.92400, 60.45068, 5.1521e-003
279.42400, 60.57652, 5.1632e-003
279.92400, 60.70275, 5.1750e-003
280.42400, 60.82925, 5.1865e-003
280.92400, 60.95584, 5.1972e-003
281.42400, 61.08252, 5.2079e-003
281.92400, 61.20930, 5.2205e-003
282.42400, 61.33610, 5.2313e-003
282.92400, 61.46298, 5.2425e-003
283.42400, 61.58996, 5.2537e-003
283.92400, 61.71699, 5.2651e-003
284.42400, 61.84425, 5.2760e-003
284.92400, 61.97161, 5.2872e-003
285.42400, 62.09894, 5.2984e-003
285.92400, 62.22614, 5.3102e-003
286.42400, 62.35345, 5.3207e-003
286.92400, 62.48091, 5.3320e-003
287.42400, 62.60838, 5.3441e-003
287.92400, 62.73605, 5.3553e-003
288.42400, 62.86406, 5.3666e-003
288.92400, 62.99226, 5.3776e-003
289.42400, 63.12073, 5.3895e-003
289.92400, 63.24931, 5.3999e-003
290.42400, 63.37802, 5.4107e-003
290.92400, 63.50680, 5.4221e-003
291.42400, 63.63575, 5.4342e-003
291.92400, 63.76461, 5.4451e-003
292.42400, 63.89366, 5.4562e-003
292.92400, 64.02280, 5.4685e-003
293.42400, 64.15210, 5.4789e-003
293.92400, 64.28150, 5.4902e-003
294.42400, 64.41109, 5.5009e-003
294.92400, 64.54089, 5.5127e-003
295.42400, 64.67070, 5.5242e-003
295.92400, 64.80061, 5.5346e-003
296.42400, 64.93056, 5.5459e-003
296.92400, 65.06077, 5.5569e-003
297.42400, 65.19156, 5.5687e-003
297.92400, 65.32250, 5.5797e-003
298.42400, 65.45348, 5.5903e-003
298.92400, 65.58464, 5.6021e-003
299.42400, 65.71584, 5.6136e-003
299.92400, 65.84661, 5.6240e-003
300.42400, 65.97717, 5.6355e-003
300.92400, 66.10806, 5.6473e-003
301.42400, 66.23903, 5.6582e-003
301.92400, 66.37008, 5.6686e-003
302.42400, 66.50169, 5.6801e-003
302.92400, 66.63328, 5.6916e-003
303.42400, 66.76480, 5.7030e-003
303.92400, 66.89636, 5.7146e-003
304.42400, 67.02797, 5.7262e-003
304.92400, 67.15956, 5.7367e-003
305.42400, 67.29139, 5.7477e-003
305.92400, 67.42348, 5.7593e-003
306.42400, 67.55578, 5.7696e-003
306.92400, 67.68826, 5.7798e-003
307.42400, 67.82100, 5.7916e-003
307.92400, 67.95349, 5.8026e-003
308.42400, 68.08604, 5.8136e-003
308.92400, 68.21841, 5.8249e-003
309.42400, 68.35057, 5.8362e-003
309.92400, 68.48299, 5.8469e-003
310.42400, 68.61540, 5.8584e-003
310.92400, 68.74789, 5.8693e-003
311.42400, 68.88064, 5.8800e-003
311.92400, 69.01378, 5.8911e-003
312.42400, 69.14679, 5.9030e-003
312.92400, 69.28002, 5.9133e-003
313.42400, 69.41310, 5.9240e-003
313.92400, 69.54651, 5.9363e-003
314.42400, 69.67985, 5.9474e-003
314.92400, 69.81332, 5.9581e-003
315.42400, 69.94723, 5.9701e-003
315.92400, 70.08138, 5.9809e-003
316.42400, 70.21568, 5.9916e-003
316.92400, 70.35012, 6.0037e-003
317.42400, 70.48465, 6.0144e-003
317.92400, 70.61900, 6.0254e-003
318.42400, 70.75317, 6.0371e-003
318.92400, 70.88738, 6.0472e-003
319.42400, 71.02175, 6.0545e-003
319.92400, 71.15610, 6.0645e-003
320.42400, 71.29037, 6.0766e-003
320.92400, 71.42483, 6.0873e-003
321.42400, 71.55910, 6.0983e-003
321.92400, 71.69338, 6.1096e-003
322.42400, 71.82762, 6.1158e-003
322.92400, 71.96189, 6.1159e-003
323.42400, 72.09637, 6.1246e-003
323.92400, 72.23146, 6.1345e-003
324.42400, 72.36657, 6.1438e-003
324.92400, 72.50176, 6.1254e-003
325.42400, 72.63726, 6.1354e-003
325.92400, 72.77271, 6.1438e-003
326.42400, 72.90803, 6.1559e-003
326.92400, 73.04353, 6.1555e-003
327.42400, 73.17916, 6.1644e-003
327.92400, 73.31471, 6.1733e-003
328.42400, 73.45072, 6.1821e-003
328.92400, 73.58680, 6.1929e-003
329.42400, 73.72296, 6.1868e-003
329.92400, 73.85942, 6.1927e-003
330.42400, 73.99640, 6.2012e-003
330.92400, 74.13342, 6.2116e-003
331.42400, 74.27038, 6.2102e-003
331.92400, 74.40724, 6.2188e-003
332.42400, 74.54359, 6.2274e-003
332.92400, 74.67952, 6.2366e-003
333.42400, 74.81537, 6.2453e-003
333.92400, 74.95125, 6.2556e-003
334.42400, 75.08728, 6.2648e-003
334.92400, 75.22338, 6.2756e-003
335.42400, 75.35994, 6.2888e-003
335.92400, 75.49676, 6.2963e-003
336.42400, 75.63367, 6.3057e-003
336.92400, 75.77042, 6.3168e-003
337.42400, 75.90713, 6.3364e-003
337.92400, 76.04392, 6.3423e-003
338.42400, 76.18070, 6.3507e-003
338.92400, 76.31758, 6.3602e-003
339.42400, 76.45465, 6.3694e-003
339.92400, 76.59249, 6.3772e-003
340.42400, 76.73015, 6.3880e-003
340.92400, 76.86768, 6.3971e-003
341.42400, 77.00471, 6.4089e-003
341.92400, 77.14178, 6.4188e-003
342.42400, 77.27857, 6.4306e-003
342.92400, 77.41532, 6.4409e-003
343.42400, 77.55236, 6.4527e-003
343.92400, 77.68990, 6.4626e-003
344.42400, 77.82801, 6.4740e-003
344.92400, 77.96630, 6.4848e-003
345.42400, 78.10498, 6.4949e-003
345.92400, 78.24361, 6.5069e-003
346.42400, 78.38204, 6.5171e-003
346.92400, 78.52032, 6.5292e-003
347.42400, 78.65881, 6.5401e-003
347.92400, 78.79750, 6.5515e-003
348.42400, 78.93631, 6.5620e-003
348.92400, 79.07542, 6.5735e-003
349.42400, 79.21463, 6.5841e-003
349.92400, 79.35377, 6.5963e-003
350.42400, 79.49274, 6.6065e-003
350.92400, 79.63166, 6.6207e-003
351.42400, 79.77048, 6.6282e-003
351.92400, 79.90952, 6.6375e-003
352.42400, 80.04852, 6.6486e-003
352.92400, 80.18765, 6.6591e-003
353.42400, 80.32682, 6.6707e-003
353.92400, 80.46638, 6.6813e-003
354.42400, 80.60563, 6.6929e-003
354.92400, 80.74504, 6.7036e-003
355.42400, 80.88441, 6.7161e-003
355.92400, 81.02389, 6.7266e-003
356.42400, 81.16336, 6.7375e-003
356.92400, 81.30322, 6.7560e-003
357.42400, 81.44315, 6.7644e-003
357.92400, 81.58339, 6.7738e-003
358.42400, 81.72352, 6.7829e-003
358.92400, 81.86369, 6.7950e-003
359.42400, 82.00377, 6.8052e-003
359.92400, 82.14398, 6.8171e-003
360.42400, 82.28421, 6.8273e-003
360.92400, 82.42454, 6.8395e-003
361.42400, 82.56518, 6.8487e-003
361.92400, 82.70588, 6.8611e-003
362.42400, 82.84661, 6.8721e-003
362.92400, 82.98742, 6.8828e-003
363.42400, 83.12832, 6.8950e-003
363.92400, 83.26936, 6.9055e-003
364.42400, 83.41076, 6.9164e-003
364.92400, 83.55240, 6.9280e-003
365.42400, 83.69437, 6.9398e-003
365.92400, 83.83657, 6.9498e-003
366.42400, 83.97892, 6.9619e-003
366.92400, 84.12120, 6.9782e-003
367.42400, 84.26339, 6.9857e-003
367.92400, 84.40565, 6.9960e-003
368.42400, 84.54791, 7.0075e-003
368.92400, 84.69018, 7.0186e-003
369.42400, 84.83253, 7.0282e-003
369.92400, 84.97511, 7.0405e-003
370.42400, 85.11776, 7.0508e-003
370.92400, 85.26046, 7.0629e-003
371.42400, 85.40323, 7.0734e-003
371.92400, 85.54601, 7.0850e-003
372.42400, 85.68862, 7.0954e-003
372.92400, 85.83119, 7.1096e-003
373.42400, 85.97386, 7.1201e-003
373.92400, 86.11684, 7.1297e-003
374.42400, 86.26010, 7.1418e-003
374.92400, 86.40365, 7.1522e-003
375.42400, 86.54721, 7.1646e-003
375.92400, 86.69075, 7.1744e-003
376.42400, 86.83390, 7.1862e-003
376.92400, 86.97701, 7.1968e-003
377.42400, 87.12029, 7.2088e-003
377.92400, 87.26331, 7.2207e-003
378.42400, 87.40629, 7.2313e-003
378.92400, 87.54955, 7.2431e-003
379.42400, 87.69261, 7.2536e-003
379.92400, 87.83578, 7.2653e-003
380.42400, 87.97939, 7.2751e-003
380.92400, 88.12322, 7.2877e-003
381.42400, 88.26717, 7.2988e-003
381.92400, 88.41137, 7.3102e-003
382.42400, 88.55576, 7.3218e-003
382.92400, 88.70017, 7.3324e-003
383.42400, 88.84482, 7.3435e-003
383.92400, 88.98973, 7.3548e-003
384.42400, 89.13435, 7.3669e-003
384.92400, 89.27871, 7.3773e-003
385.42400, 89.42347, 7.3910e-003
385.92400, 89.56789, 7.4009e-003
386.42400, 89.71201, 7.4127e-003
386.92400, 89.85635, 7.4238e-003
387.42400, 90.00068, 7.4370e-003
387.92400, 90.14486, 7.4485e-003
388.42400, 90.28962, 7.4610e-003
388.92400, 90.43505, 7.4713e-003
389.42400, 90.58068, 7.4836e-003
389.92400, 90.72647, 7.4957e-003
390.42400, 90.87244, 7.5065e-003
390.92400, 91.01813, 7.5202e-003
391.42400, 91.16383, 7.5313e-003
391.92400, 91.30958, 7.5436e-003
392.42400, 91.45547, 7.5530e-003
392.92400, 91.60145, 7.5656e-003
393.42400, 91.74745, 7.5768e-003
393.92400, 91.89333, 7.5875e-003
394.42400, 92.03942, 7.5994e-003
394.92400, 92.18558, 7.6116e-003
395.42400, 92.33185, 7.6226e-003
395.92400, 92.47839, 7.6351e-003
396.42400, 92.62518, 7.6460e-003
396.92400, 92.77213, 7.6577e-003
397.42400, 92.91906, 7.6700e-003
397.92400, 93.06602, 7.6803e-003
398.42400, 93.21297, 7.6925e-003
398.92400, 93.35973, 7.7029e-003
399.42400, 93.50690, 7.7157e-003
399.92400, 93.65425, 7.7280e-003
400.42400, 93.80138, 7.7384e-003
400.92400, 93.94835, 7.7510e-003
401.42400, 94.09555, 7.7638e-003
401.92400, 94.24258, 7.7715e-003
402.42400, 94.38980, 7.7838e-003
402.92400, 94.53778, 7.7960e-003
403.42400, 94.68625, 7.8073e-003
403.92400, 94.83454, 7.8198e-003
404.42400, 94.98277, 7.8302e-003
404.92400, 95.13109, 7.8420e-003
405.42400, 95.27913, 7.8551e-003
405.92400, 95.42702, 7.8653e-003
406.42400, 95.57507, 7.8770e-003
406.92400, 95.72329, 7.8881e-003
407.42400, 95.87124, 7.9001e-003
407.92400, 96.01886, 7.9128e-003
408.42400, 96.16668, 7.9263e-003
408.92400, 96.31471, 7.9385e-003
409.42400, 96.46293, 7.9494e-003
409.92400, 96.61159, 7.9623e-003
410.42400, 96.76047, 7.9743e-003
410.92400, 96.90936, 7.9850e-003
411.42400, 97.05836, 7.9974e-003
411.92400, 97.20731, 8.0104e-003
412.42400, 97.35642, 8.0218e-003
412.92400, 97.50548, 8.0336e-003
413.42400, 97.65491, 8.0467e-003
413.92400, 97.80431, 8.0598e-003
414.42400, 97.95385, 8.0729e-003
414.92400, 98.10347, 8.0850e-003
415.42400, 98.25332, 8.0966e-003
415.92400, 98.40340, 8.1092e-003
416.42400, 98.55358, 8.1198e-003
416.92400, 98.70377, 8.1323e-003
417.42400, 98.85452, 8.1456e-003
417.92400, 99.00516, 8.1557e-003
418.42400, 99.15578, 8.1683e-003
418.92400, 99.30672, 8.1815e-003
419.42400, 99.45758, 8.1924e-003
419.92400, 99.60835, 8.2049e-003
420.42400, 99.75929, 8.2183e-003
420.92400, 99.91036, 8.2316e-003
421.42400,100.06144, 8.2448e-003
421.92400,100.21249, 8.2579e-003
422.42400,100.36341, 8.2686e-003
422.92400,100.51442, 8.2815e-003
423.42400,100.66492, 8.2947e-003
423.92400,100.81550, 8.3061e-003
424.42400,100.96646, 8.3182e-003
424.92400,101.11758, 8.3307e-003
425.42400,101.26872, 8.3441e-003
425.92400,101.42047, 8.3568e-003
426.42400,101.57215, 8.3707e-003
426.92400,101.72346, 8.3839e-003
427.42400,101.87471, 8.3945e-003
427.92400,102.02616, 8.4074e-003
428.42400,102.17727, 8.4203e-003
428.92400,102.32848, 8.4344e-003
429.42400,102.48001, 8.4481e-003
429.92400,102.63159, 8.4603e-003
430.42400,102.78324, 8.4715e-003
430.92400,102.93497, 8.4845e-003
431.42400,103.08675, 8.4983e-003
431.92400,103.23862, 8.5118e-003
432.42400,103.39043, 8.5251e-003
432.92400,103.54238, 8.5385e-003
433.42400,103.69480, 8.5492e-003
433.92400,103.84787, 8.5623e-003
434.42400,104.00095, 8.5758e-003
434.92400,104.15416, 8.5890e-003
435.42400,104.30737, 8.6028e-003
435.92400,104.45990, 8.6162e-003
436.42400,104.61235, 8.6283e-003
436.92400,104.76490, 8.6410e-003
437.42400,104.91758, 8.6542e-003
437.92400,105.07061, 8.6684e-003
438.42400,105.22389, 8.6820e-003
438.92400,105.37727, 8.6961e-003
439.42400,105.53108, 8.7100e-003
439.92400,105.68551, 8.7235e-003
440.42400,105.84046, 8.7351e-003
440.92400,105.99644, 8.7492e-003
441.42400,106.15250, 8.7627e-003
441.92400,106.30916, 8.7769e-003
442.42400,106.46605, 8.7916e-003
442.92400,106.62298, 8.8049e-003
443.42400,106.78055, 8.8170e-003
443.92400,106.93818, 8.8301e-003
444.42400,107.09577, 8.8437e-003
444.92400,107.25331, 8.8577e-003
445.42400,107.41046, 8.8706e-003
445.92400,107.56731, 8.8838e-003
446.42400,107.72364, 8.8978e-003
446.92400,107.87932, 8.9113e-003
447.42400,108.03469, 8.9229e-003
447.92400,108.18913, 8.9355e-003
448.42400,108.34274, 8.9481e-003
448.92400,108.49554, 8.9612e-003
449.42400,108.64742, 8.9736e-003
449.92400,108.79868, 8.9869e-003
450.42400,108.94945, 8.9995e-003
450.92400,109.09946, 9.0122e-003
451.42400,109.24932, 9.0249e-003
451.92400,109.39894, 9.0364e-003
452.42400,109.54852, 9.0487e-003
452.92400,109.69818, 9.0617e-003
453.42400,109.84799, 9.0746e-003
453.92400,109.99762, 9.0873e-003
454.42400,110.14711, 9.1009e-003
454.92400,110.29637, 9.1133e-003
455.42400,110.44578, 9.1272e-003
455.92400,110.59512, 9.1378e-003
456.42400,110.74449, 9.1501e-003
456.92400,110.89457, 9.1634e-003
457.42400,111.04492, 9.1767e-003
457.92400,111.19539, 9.1903e-003
458.42400,111.34634, 9.2034e-003
458.92400,111.49706, 9.2166e-003
459.42400,111.64808, 9.2301e-003
459.92400,111.79929, 9.2420e-003
460.42400,111.95110, 9.2541e-003
460.92400,112.10314, 9.2674e-003
461.42400,112.25600, 9.2802e-003
461.92400,112.40898, 9.2937e-003
462.42400,112.56230, 9.3068e-003
462.92400,112.71553, 9.3202e-003
463.42400,112.86909, 9.3339e-003
463.92400,113.02219, 9.3470e-003
464.42400,113.17564, 9.3586e-003
464.92400,113.32928, 9.3711e-003
465.42400,113.48280, 9.3840e-003
465.92400,113.63641, 9.3978e-003
466.42400,113.79052, 9.4110e-003
466.92400,113.94462, 9.4243e-003
467.42400,114.09891, 9.4376e-003
467.92400,114.25371, 9.4513e-003
468.42400,114.40899, 9.4627e-003
468.92400,114.56425, 9.4754e-003
469.42400,114.71971, 9.4889e-003
469.92400,114.87585, 9.5024e-003
470.42400,115.03199, 9.5168e-003
470.92400,115.18851, 9.5307e-003
471.42400,115.34565, 9.5442e-003
471.92400,115.50294, 9.5579e-003
472.42400,115.66090, 9.5721e-003
472.92400,115.81971, 9.5863e-003
473.42400,115.97900, 9.5976e-003
473.92400,116.13900, 9.6110e-003
474.42400,116.29958, 9.6254e-003
474.92400,116.46079, 9.6396e-003
475.42400,116.62273, 9.6533e-003
475.92400,116.78526, 9.6670e-003
476.42400,116.94817, 9.6806e-003
476.92400,117.11151, 9.6946e-003
477.42400,117.27462, 9.7078e-003
477.92400,117.43769, 9.7194e-003
478.42400,117.60021, 9.7325e-003
478.92400,117.76213, 9.7456e-003
479.42400,117.92345, 9.7600e-003
479.92400,118.08433, 9.7727e-003
480.42400,118.24480, 9.7852e-003
480.92400,118.40454, 9.7984e-003
481.42400,118.56407, 9.8111e-003
481.92400,118.72298, 9.8242e-003
482.42400,118.88101, 9.8364e-003
482.92400,119.03871, 9.8480e-003
483.42400,119.19579, 9.8605e-003
483.92400,119.35206, 9.8728e-003
484.42400,119.50786, 9.8852e-003
484.92400,119.66290, 9.8984e-003
485.42400,119.81716, 9.9111e-003
485.92400,119.97123, 9.9243e-003
486.42400,120.12450, 9.9362e-003
486.92400,120.27761, 9.9493e-003
487.42400,120.43081, 9.9626e-003
487.92400,120.58402, 9.9747e-003
488.42400,120.73778, 9.9861e-003
488.92400,120.89173, 9.9992e-003
489.42400,121.04635, 1.0012e-002
489.92400,121.20158, 1.0025e-002
490.42400,121.35735, 1.0038e-002
490.92400,121.51300, 1.0051e-002
491.42400,121.66923, 1.0065e-002
491.92400,121.82536, 1.0078e-002
492.42400,121.98158, 1.0091e-002
492.92400,122.13847, 1.0104e-002
493.42400,122.29590, 1.0117e-002
493.92400,122.45374, 1.0129e-002
494.42400,122.61192, 1.0141e-002
494.92400,122.77055, 1.0154e-002
495.42400,122.92937, 1.0167e-002
495.92400,123.08846, 1.0181e-002
496.42400,123.24759, 1.0194e-002
496.92400,123.40671, 1.0207e-002
497.42400,123.56577, 1.0219e-002
497.92400,123.72529, 1.0233e-002
498.42400,123.88454, 1.0246e-002
498.92400,124.04429, 1.0259e-002
499.42400,124.20435, 1.0273e-002
499.92400,124.36469, 1.0285e-002
500.42400,124.52540, 1.0297e-002
500.92400,124.68658, 1.0310e-002
501.42400,124.84818, 1.0323e-002
501.92400,125.01038, 1.0336e-002
502.42400,125.17269, 1.0349e-002
502.92400,125.33512, 1.0363e-002
503.42400,125.49740, 1.0376e-002
503.92400,125.65958, 1.0390e-002
504.42400,125.82185, 1.0402e-002
504.92400,125.98450, 1.0415e-002
505.42400,126.14765, 1.0428e-002
505.92400,126.31068, 1.0441e-002
506.42400,126.47290, 1.0454e-002
506.92400,126.63504, 1.0467e-002
507.42400,126.79798, 1.0480e-002
507.92400,126.96100, 1.0493e-002
508.42400,127.12483, 1.0506e-002
508.92400,127.28948, 1.0519e-002
509.42400,127.45352, 1.0533e-002
509.92400,127.61761, 1.0546e-002
510.42400,127.78220, 1.0557e-002
510.92400,127.94719, 1.0570e-002
511.42400,128.11253, 1.0583e-002
511.92400,128.27831, 1.0596e-002
512.42400,128.44420, 1.0610e-002
512.92400,128.61038, 1.0622e-002
513.42400,128.77672, 1.0636e-002
513.92400,128.94274, 1.0649e-002
514.42400,129.10796, 1.0661e-002
514.92400,129.27305, 1.0675e-002
515.42400,129.43790, 1.0688e-002
515.92400,129.60290, 1.0701e-002
516.42400,129.76857, 1.0714e-002
516.92400,129.93468, 1.0727e-002
517.42400,130.10099, 1.0740e-002
517.92400,130.26781, 1.0753e-002
518.42400,130.43487, 1.0766e-002
518.92400,130.60260, 1.0779e-002
519.42400,130.76965, 1.0792e-002
519.92400,130.93665, 1.0804e-002
520.42400,131.10350, 1.0816e-002
520.92400,131.27025, 1.0829e-002
521.42400,131.43753, 1.0842e-002
521.92400,131.60489, 1.0855e-002
522.42400,131.77178, 1.0868e-002
522.92400,131.93828, 1.0882e-002
523.42400,132.10450, 1.0894e-002
523.92400,132.27092, 1.0907e-002
524.42400,132.43756, 1.0921e-002
524.92400,132.60462, 1.0934e-002
525.42400,132.77244, 1.0946e-002
525.92400,132.94064, 1.0960e-002
526.42400,133.10922, 1.0973e-002
526.92400,133.27796, 1.0986e-002
527.42400,133.44673, 1.0999e-002
527.92400,133.61552, 1.1013e-002
528.42400,133.78422, 1.1025e-002
528.92400,133.95343, 1.1038e-002
529.42400,134.12297, 1.1051e-002
529.92400,134.29221, 1.1064e-002
530.42400,134.46109, 1.1076e-002
530.92400,134.62991, 1.1088e-002
531.42400,134.79833, 1.1101e-002
531.92400,134.96686, 1.1114e-002
532.42400,135.13565, 1.1128e-002
532.92400,135.30482, 1.1140e-002
533.42400,135.47398, 1.1154e-002
533.92400,135.64334, 1.1167e-002
534.42400,135.81274, 1.1180e-002
534.92400,135.98171, 1.1193e-002
535.42400,136.15069, 1.1206e-002
535.92400,136.31974, 1.1219e-002
536.42400,136.48860, 1.1233e-002
536.92400,136.65764, 1.1245e-002
537.42400,136.82705, 1.1259e-002
537.92400,136.99629, 1.1271e-002
538.42400,137.16590, 1.1285e-002
538.92400,137.33564, 1.1297e-002
539.42400,137.50573, 1.1311e-002
539.92400,137.67621, 1.1323e-002
540.42400,137.84710, 1.1336e-002
540.92400,138.01820, 1.1349e-002
541.42400,138.18876, 1.1360e-002
541.92400,138.35883, 1.1374e-002
542.42400,138.52888, 1.1387e-002
542.92400,138.69813, 1.1400e-002
543.42400,138.86741, 1.1413e-002
543.92400,139.03757, 1.1426e-002
544.42400,139.20771, 1.1439e-002
544.92400,139.37886, 1.1453e-002
545.42400,139.55023, 1.1465e-002
545.92400,139.72178, 1.1478e-002
546.42400,139.89326, 1.1491e-002
546.92400,140.06443, 1.1505e-002
547.42400,140.23611, 1.1518e-002
547.92400,140.40762, 1.1531e-002
548.42400,140.57847, 1.1544e-002
548.92400,140.74978, 1.1557e-002
549.42400,140.92101, 1.1571e-002
549.92400,141.09244, 1.1583e-002
550.42400,141.26430, 1.1596e-002
550.92400,141.43598, 1.1609e-002
551.42400,141.60742, 1.1622e-002
551.92400,141.77832, 1.1635e-002
552.42400,141.94874, 1.1648e-002
552.92400,142.12003, 1.1660e-002
553.42400,142.29146, 1.1672e-002
553.92400,142.46283, 1.1685e-002
554.42400,142.63449, 1.1698e-002
554.92400,142.80521, 1.1711e-002
555.42400,142.97582, 1.1725e-002
555.92400,143.14692, 1.1738e-002
556.42400,143.31863, 1.1750e-002
556.92400,143.49036, 1.1764e-002
557.42400,143.66265, 1.1777e-002
557.92400,143.83440, 1.1790e-002
558.42400,144.00647, 1.1803e-002
558.92400,144.17868, 1.1817e-002
559.42400,144.35061, 1.1830e-002
559.92400,144.52280, 1.1843e-002
560.42400,144.69485, 1.1856e-002
560.92400,144.86689, 1.1869e-002
561.42400,145.03921, 1.1882e-002
561.92400,145.21145, 1.1895e-002
562.42400,145.38370, 1.1908e-002
562.92400,145.55565, 1.1921e-002
563.42400,145.72771, 1.1935e-002
563.92400,145.90007, 1.1948e-002
564.42400,146.07229, 1.1961e-002
564.92400,146.24545, 1.1974e-002
565.42400,146.41882, 1.1986e-002
565.92400,146.59272, 1.2000e-002
566.42400,146.76702, 1.2013e-002
566.92400,146.94174, 1.2027e-002
567.42400,147.11687, 1.2041e-002
567.92400,147.29247, 1.2055e-002
568.42400,147.46874, 1.2068e-002
568.92400,147.64587, 1.2082e-002
569.42400,147.82382, 1.2096e-002
569.92400,148.00293, 1.2109e-002
570.42400,148.18205, 1.2123e-002
570.92400,148.36070, 1.2136e-002
571.42400,148.53914, 1.2150e-002
571.92400,148.71662, 1.2163e-002
572.42400,148.89363, 1.2176e-002
572.92400,149.07011, 1.2190e-002
573.42400,149.24607, 1.2202e-002
573.92400,149.42115, 1.2216e-002
574.42400,149.59536, 1.2229e-002
574.92400,149.76903, 1.2242e-002
575.42400,149.94128, 1.2254e-002
575.92400,150.11190, 1.2267e-002
576.42400,150.28237, 1.2277e-002
576.92400,150.45223, 1.2291e-002
577.42400,150.62129, 1.2303e-002
577.92400,150.78992, 1.2316e-002
578.42400,150.95715, 1.2329e-002
578.92400,151.12412, 1.2342e-002
579.42400,151.29075, 1.2354e-002
579.92400,151.45766, 1.2368e-002
580.42400,151.62568, 1.2380e-002
580.92400,151.79366, 1.2394e-002
581.42400,151.96177, 1.2407e-002
581.92400,152.13060, 1.2421e-002
582.42400,152.29938, 1.2433e-002
582.92400,152.46853, 1.2447e-002
583.42400,152.63811, 1.2459e-002
583.92400,152.80790, 1.2473e-002
584.42400,152.97811, 1.2486e-002
584.92400,153.14833, 1.2499e-002
585.42400,153.31884, 1.2513e-002
585.92400,153.48986, 1.2526e-002
586.42400,153.66100, 1.2539e-002
586.92400,153.83283, 1.2552e-002
587.42400,154.00514, 1.2565e-002
587.92400,154.17737, 1.2578e-002
588.42400,154.34981, 1.2592e-002
588.92400,154.52221, 1.2604e-002
589.42400,154.69423, 1.2618e-002
589.92400,154.86654, 1.2629e-002
590.42400,155.03849, 1.2643e-002
590.92400,155.21008, 1.2656e-002
591.42400,155.38253, 1.2668e-002
591.92400,155.55515, 1.2682e-002
592.42400,155.72812, 1.2695e-002
592.92400,155.90140, 1.2708e-002
593.42400,156.07482, 1.2721e-002
593.92400,156.24834, 1.2735e-002
594.42400,156.42230, 1.2748e-002
594.92400,156.59707, 1.2761e-002
595.42400,156.77198, 1.2774e-002
595.92400,156.94709, 1.2787e-002
596.42400,157.12227, 1.2801e-002
596.92400,157.29731, 1.2815e-002
597.42400,157.47232, 1.2828e-002
597.92400,157.64722, 1.2841e-002
598.42400,157.82229, 1.2854e-002
598.92400,157.99683, 1.2867e-002
599.42400,158.17214, 1.2881e-002
599.92400,158.34792, 1.2894e-002
600.42400,158.52383, 1.2907e-002
600.92400,158.70072, 1.2921e-002
601.42400,158.87756, 1.2934e-002
601.92400,159.05448, 1.2947e-002
602.42400,159.23144, 1.2959e-002
602.92400,159.40827, 1.2972e-002
603.42400,159.58511, 1.2986e-002
603.92400,159.76238, 1.2999e-002
604.42400,159.93954, 1.3012e-002
604.92400,160.11653, 1.3025e-002
605.42400,160.29341, 1.3039e-002
605.92400,160.46999, 1.3052e-002
606.42400,160.64662, 1.3066e-002
606.92400,160.82393, 1.3079e-002
607.42400,161.00145, 1.3092e-002
607.92400,161.17855, 1.3106e-002
608.42400,161.35553, 1.3120e-002
608.92400,161.53187, 1.3133e-002
609.42400,161.70814, 1.3145e-002
609.92400,161.88542, 1.3159e-002
610.42400,162.06365, 1.3173e-002
610.92400,162.24244, 1.3186e-002
611.42400,162.42108, 1.3200e-002
611.92400,162.59987, 1.3213e-002
612.42400,162.77808, 1.3226e-002
612.92400,162.95674, 1.3240e-002
613.42400,163.13591, 1.3253e-002
613.92400,163.31394, 1.3266e-002
614.42400,163.49269, 1.3280e-002
614.92400,163.67090, 1.3293e-002
615.42400,163.84893, 1.3305e-002
615.92400,164.02723, 1.3318e-002
616.42400,164.20541, 1.3332e-002
616.92400,164.38351, 1.3345e-002
617.42400,164.56219, 1.3359e-002
617.92400,164.74194, 1.3371e-002
618.42400,164.92163, 1.3386e-002
618.92400,165.10177, 1.3399e-002
619.42400,165.28144, 1.3413e-002
619.92400,165.46116, 1.3427e-002
620.42400,165.64030, 1.3440e-002
620.92400,165.81903, 1.3453e-002
621.42400,165.99781, 1.3466e-002
621.92400,166.17573, 1.3480e-002
622.42400,166.35355, 1.3493e-002
622.92400,166.53250, 1.3507e-002
623.42400,166.71120, 1.3520e-002
623.92400,166.89029, 1.3533e-002
624.42400,167.06979, 1.3548e-002
624.92400,167.24832, 1.3561e-002
625.42400,167.42770, 1.3574e-002
625.92400,167.60642, 1.3587e-002
626.42400,167.78586, 1.3600e-002
626.92400,167.96523, 1.3615e-002
627.42400,168.14432, 1.3628e-002
627.92400,168.32421, 1.3642e-002
628.42400,168.50395, 1.3655e-002
628.92400,168.68398, 1.3667e-002
629.42400,168.86418, 1.3680e-002
629.92400,169.04458, 1.3693e-002
630.42400,169.22454, 1.3706e-002
630.92400,169.40454, 1.3720e-002
631.42400,169.58489, 1.3733e-002
631.92400,169.76542, 1.3747e-002
632.42400,169.94625, 1.3760e-002
632.92400,170.12714, 1.3774e-002
633.42400,170.30749, 1.3788e-002
633.92400,170.48794, 1.3801e-002
634.42400,170.66822, 1.3815e-002
634.92400,170.84884, 1.3829e-002
635.42400,171.02957, 1.3841e-002
635.92400,171.21020, 1.3856e-002
636.42400,171.39145, 1.3869e-002
636.92400,171.57301, 1.3882e-002
637.42400,171.75428, 1.3896e-002
637.92400,171.93562, 1.3910e-002
638.42400,172.11659, 1.3923e-002
638.92400,172.29688, 1.3937e-002
639.42400,172.47722, 1.3950e-002
639.92400,172.65702, 1.3964e-002
640.42400,172.83720, 1.3977e-002
640.92400,173.01775, 1.3991e-002
641.42400,173.19855, 1.4005e-002
641.92400,173.37940, 1.4019e-002
642.42400,173.55970, 1.4032e-002
642.92400,173.73968, 1.4046e-002
643.42400,173.91980, 1.4059e-002
643.92400,174.10050, 1.4073e-002
644.42400,174.28131, 1.4086e-002
644.92400,174.46262, 1.4098e-002
645.42400,174.64394, 1.4111e-002
645.92400,174.82512, 1.4125e-002
646.42400,175.00643, 1.4138e-002
646.92400,175.18776, 1.4152e-002
647.42400,175.36926, 1.4166e-002
647.92400,175.55145, 1.4180e-002
648.42400,175.73423, 1.4193e-002
648.92400,175.91694, 1.4207e-002
649.42400,176.09947, 1.4220e-002
649.92400,176.28111, 1.4234e-002
650.42400,176.46267, 1.4248e-002
650.92400,176.64445, 1.4262e-002
651.42400,176.82646, 1.4275e-002
651.92400,177.00875, 1.4289e-002
652.42400,177.19117, 1.4302e-002
652.92400,177.37433, 1.4316e-002
653.42400,177.55785, 1.4330e-002
653.92400,177.74091, 1.4344e-002
654.42400,177.92449, 1.4359e-002
654.92400,178.10812, 1.4372e-002
655.42400,178.29239, 1.4386e-002
655.92400,178.47798, 1.4400e-002
656.42400,178.66324, 1.4414e-002
656.92400,178.84873, 1.4428e-002
657.42400,179.03471, 1.4443e-002
657.92400,179.22149, 1.4457e-002
658.42400,179.40759, 1.4471e-002
658.92400,179.59408, 1.4485e-002
659.42400,179.78069, 1.4498e-002
659.92400,179.96721, 1.4511e-002
660.42400,180.15448, 1.4524e-002
660.92400,180.34175, 1.4538e-002
661.42400,180.52886, 1.4551e-002
661.92400,180.71457, 1.4564e-002
662.42400,180.89931, 1.4578e-002
662.92400,181.08292, 1.4592e-002
663.42400,181.26544, 1.4606e-002
663.92400,181.44760, 1.4619e-002
664.42400,181.62867, 1.4632e-002
664.92400,181.80840, 1.4646e-002
665.42400,181.98703, 1.4659e-002
665.92400,182.16579, 1.4673e-002
666.42400,182.34395, 1.4687e-002
666.92400,182.52293, 1.4699e-002
667.42400,182.70295, 1.4712e-002
667.92400,182.88215, 1.4726e-002
668.42400,183.06180, 1.4740e-002
668.92400,183.24096, 1.4754e-002
669.42400,183.41961, 1.4768e-002
669.92400,183.59857, 1.4780e-002
670.42400,183.77761, 1.4794e-002
670.92400,183.95655, 1.4808e-002
671.42400,184.13552, 1.4822e-002
671.92400,184.31467, 1.4835e-002
672.42400,184.49392, 1.4849e-002
672.92400,184.67284, 1.4863e-002
673.42400,184.85219, 1.4876e-002
673.92400,185.03198, 1.4890e-002
674.42400,185.21202, 1.4903e-002
674.92400,185.39297, 1.4916e-002
675.42400,185.57464, 1.4929e-002
675.92400,185.75727, 1.4942e-002
676.42400,185.94063, 1.4956e-002
676.92400,186.12414, 1.4969e-002
677.42400,186.30678, 1.4984e-002
677.92400,186.48946, 1.4997e-002
678.42400,186.67246, 1.5011e-002
678.92400,186.85547, 1.5025e-002
679.42400,187.03936, 1.5038e-002
679.92400,187.22311, 1.5051e-002
680.42400,187.40767, 1.5066e-002
680.92400,187.59266, 1.5080e-002
681.42400,187.77807, 1.5093e-002
681.92400,187.96364, 1.5107e-002
682.42400,188.14869, 1.5120e-002
682.92400,188.33449, 1.5134e-002
683.42400,188.51971, 1.5148e-002
683.92400,188.70523, 1.5162e-002
684.42400,188.89042, 1.5175e-002
684.92400,189.07633, 1.5190e-002
685.42400,189.26300, 1.5204e-002
685.92400,189.44870, 1.5218e-002
686.42400,189.63495, 1.5231e-002
686.92400,189.82037, 1.5246e-002
687.42400,190.00644, 1.5260e-002
687.92400,190.19330, 1.5273e-002
688.42400,190.38006, 1.5287e-002
688.92400,190.56724, 1.5302e-002
689.42400,190.75448, 1.5315e-002
689.92400,190.94217, 1.5328e-002
690.42400,191.13057, 1.5340e-002
690.92400,191.31916, 1.5354e-002
691.42400,191.50836, 1.5367e-002
691.92400,191.69801, 1.5381e-002
692.42400,191.88768, 1.5395e-002
692.92400,192.07759, 1.5410e-002
693.42400,192.26746, 1.5424e-002
693.92400,192.45755, 1.5437e-002
694.42400,192.64783, 1.5451e-002
694.92400,192.83823, 1.5465e-002
695.42400,193.02853, 1.5479e-002
695.92400,193.21888, 1.5493e-002
696.42400,193.40905, 1.5508e-002
696.92400,193.59927, 1.5521e-002
697.42400,193.78959, 1.5535e-002
697.92400,193.98007, 1.5549e-002
698.42400,194.17023, 1.5562e-002
698.92400,194.36028, 1.5577e-002
699.42400,194.55016, 1.5590e-002
699.92400,194.73984, 1.5604e-002
700.42400,194.92946, 1.5618e-002
700.92400,195.11923, 1.5632e-002
701.42400,195.30884, 1.5645e-002
701.92400,195.49877, 1.5660e-002
702.42400,195.68815, 1.5673e-002
702.92400,195.87739, 1.5687e-002
703.42400,196.06689, 1.5701e-002
703.92400,196.25647, 1.5715e-002
704.42400,196.44626, 1.5729e-002
704.92400,196.63660, 1.5742e-002
705.42400,196.82642, 1.5756e-002
705.92400,197.01610, 1.5768e-002
706.42400,197.20644, 1.5782e-002
706.92400,197.39695, 1.5795e-002
707.42400,197.58769, 1.5809e-002
707.92400,197.77856, 1.5824e-002
708.42400,197.96867, 1.5837e-002
708.92400,198.15825, 1.5851e-002
709.42400,198.34774, 1.5864e-002
709.92400,198.53734, 1.5878e-002
710.42400,198.72745, 1.5892e-002
710.92400,198.91785, 1.5906e-002
711.42400,199.10896, 1.5920e-002
711.92400,199.29943, 1.5935e-002
712.42400,199.48978, 1.5949e-002
712.92400,199.67997, 1.5963e-002
713.42400,199.87028, 1.5977e-002
713.92400,200.06217, 1.5991e-002
714.42400,200.25489, 1.6006e-002
714.92400,200.44853, 1.6020e-002
715.42400,200.64243, 1.6035e-002
715.92400,200.83727, 1.6049e-002
716.42400,201.03312, 1.6064e-002
716.92400,201.22987, 1.6078e-002
717.42400,201.42753, 1.6092e-002
717.92400,201.62492, 1.6107e-002
718.42400,201.82150, 1.6120e-002
718.92400,202.01730, 1.6135e-002
719.42400,202.21259, 1.6149e-002
719.92400,202.40670, 1.6163e-002
720.42400,202.60014, 1.6176e-002
720.92400,202.79232, 1.6190e-002
721.42400,202.98334, 1.6204e-002
721.92400,203.17339, 1.6216e-002
722.42400,203.36195, 1.6230e-002
722.92400,203.54994, 1.6242e-002
723.42400,203.73662, 1.6255e-002
723.92400,203.92263, 1.6268e-002
724.42400,204.10808, 1.6281e-002
724.92400,204.29295, 1.6295e-002
725.42400,204.47742, 1.6308e-002
725.92400,204.66230, 1.6322e-002
726.42400,204.84768, 1.6336e-002
726.92400,205.03287, 1.6349e-002
727.42400,205.21788, 1.6363e-002
727.92400,205.40232, 1.6377e-002
728.42400,205.58670, 1.6391e-002
728.92400,205.77122, 1.6405e-002
729.42400,205.95700, 1.6418e-002
729.92400,206.14321, 1.6432e-002
730.42400,206.32964, 1.6446e-002
730.92400,206.51686, 1.6459e-002
731.42400,206.70387, 1.6474e-002
731.92400,206.89055, 1.6487e-002
732.42400,207.07729, 1.6501e-002
732.92400,207.26372, 1.6516e-002
733.42400,207.45059, 1.6529e-002
733.92400,207.63808, 1.6542e-002
734.42400,207.82566, 1.6556e-002
734.92400,208.01306, 1.6570e-002
735.42400,208.20018, 1.6584e-002
735.92400,208.38736, 1.6598e-002
736.42400,208.57473, 1.6612e-002
736.92400,208.76271, 1.6625e-002
737.42400,208.95120, 1.6639e-002
737.92400,209.13972, 1.6653e-002
738.42400,209.32848, 1.6667e-002
738.92400,209.51741, 1.6681e-002
739.42400,209.70640, 1.6695e-002
739.92400,209.89582, 1.6709e-002
740.42400,210.08493, 1.6721e-002
740.92400,210.27426, 1.6734e-002
741.42400,210.46392, 1.6747e-002
741.92400,210.65401, 1.6762e-002
742.42400,210.84420, 1.6776e-002
742.92400,211.03409, 1.6789e-002
743.42400,211.22396, 1.6804e-002
743.92400,211.41381, 1.6818e-002
744.42400,211.60416, 1.6832e-002
744.92400,211.79525, 1.6845e-002
745.42400,211.98705, 1.6859e-002
745.92400,212.17929, 1.6874e-002
746.42400,212.37198, 1.6888e-002
746.92400,212.56531, 1.6902e-002
747.42400,212.75846, 1.6915e-002
747.92400,212.95182, 1.6929e-002
748.42400,213.14501, 1.6944e-002
748.92400,213.33707, 1.6957e-002
749.42400,213.52960, 1.6972e-002
749.92400,213.72108, 1.6985e-002
750.42400,213.91332, 1.7000e-002
750.92400,214.10477, 1.7014e-002
751.42400,214.29619, 1.7027e-002
751.92400,214.48790, 1.7041e-002
752.42400,214.67913, 1.7056e-002
752.92400,214.87082, 1.7070e-002
753.42400,215.06285, 1.7084e-002
753.92400,215.25511, 1.7098e-002
754.42400,215.44700, 1.7112e-002
754.92400,215.63900, 1.7126e-002
755.42400,215.83106, 1.7141e-002
755.92400,216.02329, 1.7155e-002
756.42400,216.21657, 1.7169e-002
756.92400,216.41000, 1.7182e-002
757.42400,216.60439, 1.7197e-002
757.92400,216.79878, 1.7211e-002
758.42400,216.99349, 1.7224e-002
758.92400,217.18804, 1.7239e-002
759.42400,217.38195, 1.7253e-002
759.92400,217.57593, 1.7266e-002
760.42400,217.76966, 1.7278e-002
760.92400,217.96360, 1.7292e-002
761.42400,218.15785, 1.7306e-002
761.92400,218.35213, 1.7320e-002
762.42400,218.54679, 1.7334e-002
762.92400,218.74144, 1.7348e-002
763.42400,218.93657, 1.7363e-002
763.92400,219.13200, 1.7377e-002
764.42400,219.32752, 1.7391e-002
764.92400,219.52357, 1.7404e-002
765.42400,219.71942, 1.7420e-002
765.92400,219.91547, 1.7434e-002
766.42400,220.11097, 1.7448e-002
766.92400,220.30657, 1.7462e-002
767.42400,220.50285, 1.7476e-002
767.92400,220.70090, 1.7490e-002
768.42400,220.90021, 1.7505e-002
768.92400,221.10249, 1.7519e-002
769.42400,222.05119, 1.7571e-002
769.92400,222.23330, 1.7585e-002
770.42400,222.41812, 1.7598e-002
770.92400,222.60399, 1.7612e-002
771.42400,222.79145, 1.7626e-002
771.92400,222.97990, 1.7639e-002
772.42400,223.16931, 1.7653e-002
772.92400,223.35858, 1.7667e-002
773.42400,223.54719, 1.7681e-002
773.92400,223.73520, 1.7694e-002
774.42400,223.92367, 1.7709e-002
774.92400,224.11287, 1.7723e-002
775.42400,224.30304, 1.7737e-002
775.92400,224.49309, 1.7750e-002
776.42400,224.68399, 1.7764e-002
776.92400,224.87573, 1.7779e-002
777.42400,225.06917, 1.7793e-002
777.92400,225.26422, 1.7809e-002
778.42400,225.46003, 1.7822e-002
778.92400,225.65608, 1.7837e-002
779.42400,225.85244, 1.7852e-002
779.92400,226.04951, 1.7865e-002
780.42400,226.24891, 1.7878e-002
780.92400,226.45078, 1.7892e-002
781.42400,226.65539, 1.7907e-002
781.92400,226.86123, 1.7922e-002
782.42400,227.06882, 1.7936e-002
782.92400,227.27660, 1.7950e-002
783.42400,227.48327, 1.7964e-002
783.92400,227.68861, 1.7978e-002
784.42400,227.89061, 1.7992e-002
784.92400,228.09110, 1.8005e-002
785.42400,228.28998, 1.8019e-002
785.92400,228.48834, 1.8033e-002
786.42400,228.68559, 1.8047e-002
786.92400,228.88272, 1.8061e-002
787.42400,229.08044, 1.8075e-002
787.92400,229.28007, 1.8089e-002
788.42400,229.48209, 1.8104e-002
788.92400,229.68559, 1.8118e-002
789.42400,229.88893, 1.8132e-002
789.92400,230.09209, 1.8146e-002
790.42400,230.29392, 1.8160e-002
790.92400,230.49477, 1.8174e-002
791.42400,230.69439, 1.8188e-002
791.92400,230.89291, 1.8202e-002
792.42400,231.09012, 1.8215e-002
792.92400,231.28644, 1.8230e-002
793.42400,231.48050, 1.8243e-002
793.92400,231.67394, 1.8257e-002
794.42400,231.86792, 1.8271e-002
794.92400,232.06442, 1.8286e-002
795.42400,232.26315, 1.8300e-002
795.92400,232.46415, 1.8315e-002
796.42400,232.66592, 1.8330e-002
796.92400,232.86749, 1.8344e-002
797.42400,233.06916, 1.8359e-002
797.92400,233.27071, 1.8372e-002
798.42400,233.47192, 1.8387e-002
798.92400,233.67434, 1.8401e-002
799.42400,233.87750, 1.8415e-002
799.92400,234.08207, 1.8430e-002
800.42400,234.28724, 1.8444e-002
800.92400,234.49198, 1.8458e-002
801.42400,234.69806, 1.8473e-002
801.92400,234.90658, 1.8487e-002
802.42400,235.11693, 1.8501e-002
802.92400,235.33041, 1.8514e-002
803.42400,235.54505, 1.8529e-002
803.92400,235.76091, 1.8543e-002
804.42400,235.97716, 1.8558e-002
804.92400,236.19357, 1.8573e-002
805.42400,236.40899, 1.8588e-002
805.92400,236.62346, 1.8602e-002
806.42400,236.83692, 1.8615e-002
806.92400,237.04900, 1.8630e-002
807.42400,237.25939, 1.8644e-002
807.92400,237.46830, 1.8659e-002
808.42400,237.67579, 1.8673e-002
808.92400,237.88235, 1.8687e-002
809.42400,238.08792, 1.8702e-002
809.92400,238.29324, 1.8718e-002
810.42400,238.49890, 1.8731e-002
810.92400,238.70484, 1.8747e-002
811.42400,238.91049, 1.8761e-002
811.92400,239.11333, 1.8775e-002
812.42400,239.31328, 1.8790e-002
812.92400,239.51032, 1.8803e-002
813.42400,239.70537, 1.8818e-002
813.92400,239.89903, 1.8831e-002
814.42400,240.09269, 1.8845e-002
814.92400,240.28528, 1.8859e-002
815.42400,240.47760, 1.8874e-002
815.92400,240.67054, 1.8892e-002
816.42400,240.86378, 1.8903e-002
816.92400,241.05764, 1.8918e-002
817.42400,241.25321, 1.8932e-002
817.92400,241.44955, 1.8945e-002
818.42400,241.64737, 1.8960e-002
818.92400,241.84646, 1.8974e-002
819.42400,242.04461, 1.8989e-002
819.92400,242.24323, 1.9004e-002
820.42400,242.44170, 1.9017e-002
820.92400,242.64003, 1.9032e-002
821.42400,242.83827, 1.9045e-002
821.92400,243.03512, 1.9060e-002
822.42400,243.23104, 1.9074e-002
822.92400,243.42631, 1.9088e-002
823.42400,243.62194, 1.9102e-002
823.92400,243.81886, 1.9117e-002
824.42400,244.01648, 1.9130e-002
824.92400,244.21597, 1.9144e-002
825.42400,244.41416, 1.9159e-002
825.92400,244.60834, 1.9173e-002
826.42400,244.80020, 1.9184e-002
826.92400,244.98874, 1.9198e-002
827.42400,245.17992, 1.9212e-002
827.92400,245.37357, 1.9226e-002
828.42400,245.56901, 1.9240e-002
828.92400,245.76646, 1.9254e-002
829.42400,245.96393, 1.9268e-002
829.92400,246.16109, 1.9283e-002
830.42400,246.35857, 1.9296e-002
830.92400,246.55747, 1.9311e-002
831.42400,246.75443, 1.9325e-002
831.92400,246.94909, 1.9340e-002
832.42400,247.13984, 1.9353e-002
832.92400,247.32743, 1.9368e-002
833.42400,247.51647, 1.9382e-002
833.92400,247.70599, 1.9396e-002
834.42400,247.89434, 1.9410e-002
834.92400,248.10979, 1.9426e-002
835.42400,248.40428, 1.9446e-002
835.92400,248.72650, 1.9467e-002
836.42400,248.96981, 1.9489e-002
836.92400,249.17098, 1.9504e-002
837.42400,249.37618, 1.9520e-002
837.92400,249.56501, 1.9534e-002
838.42400,249.73345, 1.9547e-002
838.92400,249.89324, 1.9561e-002
839.42400,250.05449, 1.9573e-002
839.92400,250.22215, 1.9587e-002
840.42400,250.42082, 1.9598e-002
840.92400,250.58882, 1.9608e-002
841.42400,250.74558, 1.9621e-002
841.92400,250.89522, 1.9633e-002
842.42400,251.04190, 1.9642e-002
842.92400,251.19823, 1.9653e-002
843.42400,251.38428, 1.9665e-002
843.92400,251.56910, 1.9676e-002
844.42400,251.75925, 1.9690e-002
844.92400,251.95093, 1.9704e-002
845.42400,252.15172, 1.9717e-002
845.92400,252.34817, 1.9730e-002
846.42400,252.53635, 1.9744e-002
846.92400,252.71818, 1.9757e-002
847.42400,252.89643, 1.9771e-002
847.92400,253.07427, 1.9784e-002
848.42400,253.25239, 1.9798e-002
848.92400,253.43631, 1.9811e-002
849.42400,253.62571, 1.9827e-002
849.92400,253.82093, 1.9840e-002
850.42400,254.01302, 1.9855e-002
850.92400,254.20445, 1.9870e-002
851.42400,254.39228, 1.9883e-002

