#EXPORTTYPE:           ,DATA ALL                                                                               
#FILE:                 ,oligTanz010s2r1.ngb-sle                                                                
#FORMAT:               ,NETZSCH5                                                                               
#FTYPE:                ,ANSI                                                                                   
#IDENTITY:             ,sunstone peristerite                                                                   
#DECIMAL:              ,POINT                                                                                  
#SEPARATOR:            ,COMMA                                                                                  
#MTYPE:                ,DIL                                                                                    
#INSTRUMENT:           ,NETZSCH DIL 402C                                                                       
#PROJECT:              ,feldspar                                                                               
#DATE/TIME:            ,8/28/2019 10:01:21 AM (UTC-5)                                                          
#CORR. FILE:           ,                                                                                       
#TEMPCAL:              ,TCALZERO.TMX                                                                           
#LABORATORY:           ,Mineral Physics                                                                        
#OPERATOR:             ,PAG                                                                                    
#REMARK:               ,bare, norm start, for oligoclase sunstone peristerite perp to lamella, 010 blocky shape
#SAMPLE:               ,oligTanz010sam2                                                                        
#SAMPLE LENGTH /mm:    ,9.477                                                                                  
#MATERIAL:             ,sapphire stnd                                                                          
#MEASMODE:             ,Standard Expansion                                                                     
#PURGE GAS 1:          ,ARGON                                                                                  
#FLOW RATE 1 /(ml/min):,75                                                                                     
#M.RANGE /µm:          ,500                                                                                    
#CORR. CODE:           ,010                                                                                    
#RANGE:                ,20.0°C/3.0(K/min)/1050.0°C                                                             
#SEGMENT:              ,S1/1                                                                                   
#SEG. 1:               ,20.0°C/3.0(K/min)/1050.0°C                                                             

##Temp./°C,Time/min,dL/Lo,Alpha/(1/K)
  22.38900,  0.00000, 2.1575e-005, 1.8705e-005
  22.88900,  4.41327, 1.9036e-005,-1.5780e-005
  23.38900,  4.77240, 1.0199e-005,-1.7152e-005
  23.88900,  5.03312, 1.9834e-006,-1.5768e-005
  24.38900,  5.24680,-5.3123e-006,-1.3717e-005
  24.88900,  5.43254,-1.2845e-005,-1.4100e-005
  25.38900,  5.59884,-1.9369e-005,-1.1733e-005
  25.88900,  5.75117,-2.6001e-005,-1.2121e-005
  26.38900,  5.89345,-3.0835e-005,-1.0125e-005
  26.88900,  6.02820,-3.5852e-005,-9.0493e-006
  27.38900,  6.15686,-4.0272e-005,-8.7929e-006
  27.88900,  6.28061,-4.4680e-005,-9.0836e-006
  28.38900,  6.40047,-4.8534e-005,-6.6384e-006
  28.88900,  6.51734,-5.1251e-005,-6.2116e-006
  29.38900,  6.63163,-5.5006e-005,-5.9490e-006
  29.88900,  6.74353,-5.7609e-005,-5.4253e-006
  30.38900,  6.85351,-6.0177e-005,-4.5749e-006
  30.88900,  6.96203,-6.2064e-005,-3.1441e-006
  31.38900,  7.06942,-6.3549e-005,-3.6047e-006
  31.88900,  7.17572,-6.5660e-005,-2.9664e-006
  32.38900,  7.28117,-6.6286e-005,-1.7118e-006
  32.88900,  7.38590,-6.7317e-005,-2.0423e-006
  33.38900,  7.49004,-6.7999e-005,-6.4311e-007
  33.88900,  7.59392,-6.8511e-005,-5.6457e-007
  34.38900,  7.69749,-6.8246e-005, 4.9130e-007
  34.88900,  7.80076,-6.8011e-005, 8.1251e-007
  35.38900,  7.90394,-6.7530e-005, 1.2620e-006
  35.88900,  8.00703,-6.6593e-005, 1.7124e-006
  36.38900,  8.11003,-6.6105e-005, 1.6176e-006
  36.88900,  8.21285,-6.5388e-005, 2.7671e-006
  37.38900,  8.31570,-6.3536e-005, 3.2364e-006
  37.88900,  8.41853,-6.1914e-005, 3.3898e-006
  38.38900,  8.52127,-6.0034e-005, 3.3631e-006
  38.88900,  8.62390,-5.8156e-005, 4.1862e-006
  39.38900,  8.72630,-5.6342e-005, 3.6873e-006
  39.88900,  8.82839,-5.4068e-005, 4.9674e-006
  40.38900,  8.93047,-5.1577e-005, 5.1227e-006
  40.88900,  9.03230,-4.9041e-005, 5.0869e-006
  41.38900,  9.13396,-4.6449e-005, 5.3275e-006
  41.88900,  9.23578,-4.3193e-005, 5.6404e-006
  42.38900,  9.33740,-4.0685e-005, 5.5457e-006
  42.88900,  9.43892,-3.7981e-005, 5.6673e-006
  43.38900,  9.54074,-3.4977e-005, 5.8779e-006
  43.88900,  9.64257,-3.2119e-005, 5.6347e-006
  44.38900,  9.74433,-2.9123e-005, 6.1318e-006
  44.88900,  9.84592,-2.6372e-005, 6.0303e-006
  45.38900,  9.94716,-2.3406e-005, 6.1321e-006
  45.88900, 10.04812,-1.9955e-005, 6.4618e-006
  46.38900, 10.14887,-1.6772e-005, 6.4078e-006
  46.88900, 10.24920,-1.3618e-005, 6.7467e-006
  47.38900, 10.34895,-1.0167e-005, 6.6162e-006
  47.88900, 10.44812,-6.9462e-006, 6.6769e-006
  48.38900, 10.54694,-3.3085e-006, 6.7649e-006
  48.88900, 10.64553,-2.7385e-007, 6.9067e-006
  49.38900, 10.74351, 3.6262e-006, 7.1500e-006
  49.88900, 10.84109, 6.7121e-006, 6.6029e-006
  50.38900, 10.93830, 1.0435e-005, 7.2358e-006
  50.88900, 11.03531, 1.3811e-005, 6.8827e-006
  51.38900, 11.13218, 1.7265e-005, 6.9307e-006
  51.88900, 11.22880, 2.1181e-005, 7.1256e-006
  52.38900, 11.32488, 2.4272e-005, 7.3548e-006
  52.88900, 11.42060, 2.7852e-005, 7.3367e-006
  53.38900, 11.51623, 3.1731e-005, 7.3706e-006
  53.88900, 11.61173, 3.5657e-005, 7.4343e-006
  54.38900, 11.70697, 3.9208e-005, 7.5262e-006
  54.88900, 11.80190, 4.3090e-005, 8.3380e-006
  55.38900, 11.89649, 4.7306e-005, 7.9091e-006
  55.88900, 11.99082, 5.1029e-005, 7.8455e-006
  56.38900, 12.08507, 5.5189e-005, 8.3012e-006
  56.88900, 12.17932, 5.9412e-005, 8.1855e-006
  57.38900, 12.27337, 6.3513e-005, 7.6890e-006
  57.88900, 12.36701, 6.7549e-005, 7.9669e-006
  58.38900, 12.46076, 7.1001e-005, 8.5021e-006
  58.88900, 12.55447, 7.5699e-005, 8.5704e-006
  59.38900, 12.64801, 7.9857e-005, 8.6837e-006
  59.88900, 12.74162, 8.4514e-005, 8.8637e-006
  60.38900, 12.83529, 8.8565e-005, 9.0188e-006
  60.88900, 12.92897, 9.3588e-005, 8.9528e-006
  61.38900, 13.02274, 9.7627e-005, 8.9018e-006
  61.88900, 13.11641, 1.0219e-004, 8.8917e-006
  62.38900, 13.20999, 1.0665e-004, 9.5447e-006
  62.88900, 13.30359, 1.1132e-004, 9.4910e-006
  63.38900, 13.39745, 1.1627e-004, 9.3932e-006
  63.88900, 13.49117, 1.2107e-004, 1.0044e-005
  64.38900, 13.58475, 1.2615e-004, 9.8005e-006
  64.88900, 13.67828, 1.3073e-004, 9.6477e-006
  65.38900, 13.77175, 1.3577e-004, 9.9744e-006
  65.88900, 13.86524, 1.4082e-004, 9.9468e-006
  66.38900, 13.95907, 1.4607e-004, 1.0670e-005
  66.88900, 14.05298, 1.5119e-004, 1.0147e-005
  67.38900, 14.14691, 1.5639e-004, 1.0462e-005
  67.88900, 14.24090, 1.6154e-004, 1.0082e-005
  68.38900, 14.33499, 1.6671e-004, 1.0463e-005
  68.88900, 14.42905, 1.7206e-004, 1.0710e-005
  69.38900, 14.52324, 1.7725e-004, 1.0629e-005
  69.88900, 14.61707, 1.8245e-004, 1.0602e-005
  70.38900, 14.71082, 1.8805e-004, 1.0722e-005
  70.88900, 14.80464, 1.9329e-004, 1.0848e-005
  71.38900, 14.89875, 1.9873e-004, 1.1077e-005
  71.88900, 14.99273, 2.0432e-004, 1.0823e-005
  72.38900, 15.08699, 2.0932e-004, 1.0695e-005
  72.88900, 15.18134, 2.1541e-004, 1.1512e-005
  73.38900, 15.27601, 2.2084e-004, 1.1075e-005
  73.88900, 15.37086, 2.2630e-004, 1.1376e-005
  74.38900, 15.46569, 2.3224e-004, 1.1536e-005
  74.88900, 15.56046, 2.3822e-004, 1.1349e-005
  75.38900, 15.65531, 2.4336e-004, 1.1510e-005
  75.88900, 15.75033, 2.4945e-004, 1.1587e-005
  76.38900, 15.84523, 2.5499e-004, 1.1430e-005
  76.88900, 15.94036, 2.6084e-004, 1.1452e-005
  77.38900, 16.03551, 2.6655e-004, 1.1245e-005
  77.88900, 16.13115, 2.7208e-004, 1.1647e-005
  78.38900, 16.22651, 2.7799e-004, 1.1584e-005
  78.88900, 16.32207, 2.8369e-004, 1.1137e-005
  79.38900, 16.41770, 2.8935e-004, 1.2030e-005
  79.88900, 16.51332, 2.9557e-004, 1.1774e-005
  80.38900, 16.60914, 3.0139e-004, 1.1857e-005
  80.88900, 16.70494, 3.0756e-004, 1.1828e-005
  81.38900, 16.80074, 3.1305e-004, 1.1633e-005
  81.88900, 16.89656, 3.1904e-004, 1.2343e-005
  82.38900, 16.99272, 3.2519e-004, 1.2071e-005
  82.88900, 17.08899, 3.3140e-004, 1.1758e-005
  83.38900, 17.18510, 3.3719e-004, 1.1925e-005
  83.88900, 17.28150, 3.4303e-004, 1.2114e-005
  84.38900, 17.37809, 3.4941e-004, 1.2264e-005
  84.88900, 17.47470, 3.5527e-004, 1.1715e-005
  85.38900, 17.57134, 3.6105e-004, 1.2292e-005
  85.88900, 17.66793, 3.6739e-004, 1.2262e-005
  86.38900, 17.76459, 3.7349e-004, 1.1735e-005
  86.88900, 17.86154, 3.7913e-004, 1.2427e-005
  87.38900, 17.95835, 3.8567e-004, 1.2428e-005
  87.88900, 18.05499, 3.9161e-004, 1.2314e-005
  88.38900, 18.15192, 3.9816e-004, 1.2628e-005
  88.88900, 18.24897, 4.0451e-004, 1.2375e-005
  89.38900, 18.34608, 4.1071e-004, 1.2121e-005
  89.88900, 18.44340, 4.1685e-004, 1.2423e-005
  90.38900, 18.54076, 4.2261e-004, 1.2291e-005
  90.88900, 18.63816, 4.2877e-004, 1.2966e-005
  91.38900, 18.73600, 4.3524e-004, 1.2138e-005
  91.88900, 18.83372, 4.4157e-004, 1.2332e-005
  92.38900, 18.93154, 4.4769e-004, 1.2909e-005
  92.88900, 19.02972, 4.5437e-004, 1.2383e-005
  93.38900, 19.12796, 4.6041e-004, 1.2308e-005
  93.88900, 19.22615, 4.6646e-004, 1.2675e-005
  94.38900, 19.32445, 4.7309e-004, 1.2584e-005
  94.88900, 19.42329, 4.7916e-004, 1.2794e-005
  95.38900, 19.52197, 4.8561e-004, 1.2620e-005
  95.88900, 19.62073, 4.9206e-004, 1.2758e-005
  96.38900, 19.71967, 4.9825e-004, 1.2825e-005
  96.88900, 19.81857, 5.0468e-004, 1.2575e-005
  97.38900, 19.91761, 5.1114e-004, 1.3123e-005
  97.88900, 20.01678, 5.1772e-004, 1.2774e-005
  98.38900, 20.11590, 5.2384e-004, 1.2694e-005
  98.88900, 20.21518, 5.3024e-004, 1.3210e-005
  99.38900, 20.31460, 5.3674e-004, 1.2727e-005
  99.88900, 20.41413, 5.4306e-004, 1.2706e-005
 100.38900, 20.51334, 5.4958e-004, 1.2970e-005
 100.88900, 20.61270, 5.5627e-004, 1.3197e-005
 101.38900, 20.71207, 5.6241e-004, 1.2657e-005
 101.88900, 20.81166, 5.6905e-004, 1.2687e-005
 102.38900, 20.91110, 5.7532e-004, 1.3082e-005
 102.88900, 21.01055, 5.8221e-004, 1.2980e-005
 103.38900, 21.11014, 5.8850e-004, 1.3177e-005
 103.88900, 21.21005, 5.9487e-004, 1.3139e-005
 104.38900, 21.31010, 6.0124e-004, 1.2603e-005
 104.88900, 21.41035, 6.0799e-004, 1.3113e-005
 105.38900, 21.51083, 6.1449e-004, 1.3014e-005
 105.88900, 21.61182, 6.2102e-004, 1.2934e-005
 106.38900, 21.71319, 6.2756e-004, 1.2983e-005
 106.88900, 21.81465, 6.3397e-004, 1.3010e-005
 107.38900, 21.91645, 6.4039e-004, 1.2723e-005
 107.88900, 22.01829, 6.4695e-004, 1.3025e-005
 108.38900, 22.12030, 6.5355e-004, 1.3159e-005
 108.88900, 22.22219, 6.5975e-004, 1.2778e-005
 109.38900, 22.32380, 6.6664e-004, 1.3433e-005
 109.88900, 22.42548, 6.7324e-004, 1.3097e-005
 110.38900, 22.52695, 6.7955e-004, 1.3089e-005
 110.88900, 22.62810, 6.8600e-004, 1.3475e-005
 111.38900, 22.72961, 6.9291e-004, 1.3258e-005
 111.88900, 22.83112, 6.9934e-004, 1.2596e-005
 112.38900, 22.93261, 7.0595e-004, 1.3175e-005
 112.88900, 23.03412, 7.1260e-004, 1.3388e-005
 113.38900, 23.13573, 7.1877e-004, 1.3429e-005
 113.88900, 23.23755, 7.2583e-004, 1.2957e-005
 114.38900, 23.33952, 7.3235e-004, 1.3114e-005
 114.88900, 23.44138, 7.3865e-004, 1.3484e-005
 115.38900, 23.54332, 7.4574e-004, 1.3558e-005
 115.88900, 23.64543, 7.5244e-004, 1.3125e-005
 116.38900, 23.74768, 7.5887e-004, 1.3614e-005
 116.88900, 23.84986, 7.6576e-004, 1.2897e-005
 117.38900, 23.95222, 7.7192e-004, 1.3333e-005
 117.88900, 24.05474, 7.7882e-004, 1.3195e-005
 118.38900, 24.15734, 7.8560e-004, 1.3343e-005
 118.88900, 24.25989, 7.9211e-004, 1.3721e-005
 119.38900, 24.36245, 7.9898e-004, 1.3474e-005
 119.88900, 24.46505, 8.0569e-004, 1.3133e-005
 120.38900, 24.56764, 8.1235e-004, 1.3314e-005
 120.88900, 24.67019, 8.1909e-004, 1.3479e-005
 121.38900, 24.77285, 8.2561e-004, 1.3248e-005
 121.88900, 24.87557, 8.3227e-004, 1.3047e-005
 122.38900, 24.97830, 8.3859e-004, 1.3260e-005
 122.88900, 25.08134, 8.4553e-004, 1.3581e-005
 123.38900, 25.18435, 8.5194e-004, 1.3026e-005
 123.88900, 25.28748, 8.5911e-004, 1.3497e-005
 124.38900, 25.39070, 8.6546e-004, 1.3189e-005
 124.88900, 25.49408, 8.7219e-004, 1.3080e-005
 125.38900, 25.59750, 8.7877e-004, 1.3356e-005
 125.88900, 25.70096, 8.8548e-004, 1.3419e-005
 126.38900, 25.80449, 8.9224e-004, 1.3493e-005
 126.88900, 25.90802, 8.9858e-004, 1.3197e-005
 127.38900, 26.01174, 9.0554e-004, 1.3991e-005
 127.88900, 26.11545, 9.1241e-004, 1.3532e-005
 128.38900, 26.21936, 9.1931e-004, 1.3545e-005
 128.88900, 26.32343, 9.2622e-004, 1.3359e-005
 129.38900, 26.42770, 9.3268e-004, 1.3132e-005
 129.88900, 26.53180, 9.3923e-004, 1.3886e-005
 130.38900, 26.63612, 9.4597e-004, 1.3191e-005
 130.88900, 26.74036, 9.5273e-004, 1.3466e-005
 131.38900, 26.84475, 9.5917e-004, 1.3441e-005
 131.88900, 26.94889, 9.6618e-004, 1.4069e-005
 132.38900, 27.05294, 9.7340e-004, 1.3598e-005
 132.88900, 27.15699, 9.8014e-004, 1.3852e-005
 133.38900, 27.26111, 9.8681e-004, 1.3432e-005
 133.88900, 27.36533, 9.9355e-004, 1.3468e-005
 134.38900, 27.46961, 1.0005e-003, 1.3701e-005
 134.88900, 27.57391, 1.0070e-003, 1.3277e-005
 135.38900, 27.67837, 1.0140e-003, 1.4120e-005
 135.88900, 27.78305, 1.0212e-003, 1.3623e-005
 136.38900, 27.88807, 1.0276e-003, 1.3515e-005
 136.88900, 27.99309, 1.0342e-003, 1.3390e-005
 137.38900, 28.09821, 1.0410e-003, 1.3710e-005
 137.88900, 28.20354, 1.0480e-003, 1.3705e-005
 138.38900, 28.30903, 1.0547e-003, 1.3391e-005
 138.88900, 28.41459, 1.0615e-003, 1.3754e-005
 139.38900, 28.52016, 1.0686e-003, 1.3676e-005
 139.88900, 28.62556, 1.0749e-003, 1.3519e-005
 140.38900, 28.73127, 1.0819e-003, 1.3821e-005
 140.88900, 28.83684, 1.0888e-003, 1.3820e-005
 141.38900, 28.94229, 1.0958e-003, 1.3890e-005
 141.88900, 29.04804, 1.1024e-003, 1.3596e-005
 142.38900, 29.15372, 1.1094e-003, 1.3477e-005
 142.88900, 29.25964, 1.1166e-003, 1.4091e-005
 143.38900, 29.36554, 1.1234e-003, 1.3956e-005
 143.88900, 29.47163, 1.1300e-003, 1.3465e-005
 144.38900, 29.57787, 1.1375e-003, 1.3723e-005
 144.88900, 29.68419, 1.1439e-003, 1.3739e-005
 145.38900, 29.79014, 1.1507e-003, 1.3684e-005
 145.88900, 29.89614, 1.1576e-003, 1.3631e-005
 146.38900, 30.00242, 1.1643e-003, 1.3607e-005
 146.88900, 30.10895, 1.1711e-003, 1.3489e-005
 147.38900, 30.21537, 1.1779e-003, 1.3673e-005
 147.88900, 30.32191, 1.1848e-003, 1.4167e-005
 148.38900, 30.42839, 1.1918e-003, 1.3643e-005
 148.88900, 30.53513, 1.1987e-003, 1.3858e-005
 149.38900, 30.64212, 1.2053e-003, 1.3574e-005
 149.88900, 30.74870, 1.2124e-003, 1.3552e-005
 150.38900, 30.85523, 1.2192e-003, 1.4252e-005
 150.88900, 30.96197, 1.2261e-003, 1.3981e-005
 151.38900, 31.06853, 1.2333e-003, 1.3738e-005
 151.88900, 31.17528, 1.2400e-003, 1.3218e-005
 152.38900, 31.28195, 1.2466e-003, 1.3612e-005
 152.88900, 31.38864, 1.2534e-003, 1.3628e-005
 153.38900, 31.49562, 1.2603e-003, 1.3867e-005
 153.88900, 31.60241, 1.2672e-003, 1.3666e-005
 154.38900, 31.70950, 1.2741e-003, 1.3476e-005
 154.88900, 31.81685, 1.2811e-003, 1.4262e-005
 155.38900, 31.92425, 1.2878e-003, 1.3936e-005
 155.88900, 32.03184, 1.2951e-003, 1.3613e-005
 156.38900, 32.13945, 1.3015e-003, 1.3156e-005
 156.88900, 32.24714, 1.3086e-003, 1.3943e-005
 157.38900, 32.35485, 1.3150e-003, 1.3723e-005
 157.88900, 32.46260, 1.3222e-003, 1.3850e-005
 158.38900, 32.57021, 1.3292e-003, 1.3708e-005
 158.88900, 32.67782, 1.3359e-003, 1.3835e-005
 159.38900, 32.78546, 1.3429e-003, 1.3665e-005
 159.88900, 32.89309, 1.3497e-003, 1.3895e-005
 160.38900, 33.00069, 1.3567e-003, 1.3619e-005
 160.88900, 33.10819, 1.3632e-003, 1.3766e-005
 161.38900, 33.21575, 1.3705e-003, 1.4383e-005
 161.88900, 33.32346, 1.3772e-003, 1.3557e-005
 162.38900, 33.43120, 1.3842e-003, 1.3519e-005
 162.88900, 33.53908, 1.3912e-003, 1.3893e-005
 163.38900, 33.64694, 1.3981e-003, 1.3653e-005
 163.88900, 33.75503, 1.4048e-003, 1.3573e-005
 164.38900, 33.86317, 1.4114e-003, 1.4044e-005
 164.88900, 33.97165, 1.4189e-003, 1.3829e-005
 165.38900, 34.08036, 1.4254e-003, 1.3549e-005
 165.88900, 34.18883, 1.4326e-003, 1.3988e-005
 166.38900, 34.29784, 1.4392e-003, 1.3813e-005
 166.88900, 34.40691, 1.4463e-003, 1.3593e-005
 167.38900, 34.51571, 1.4531e-003, 1.3999e-005
 167.88900, 34.62471, 1.4602e-003, 1.4251e-005
 168.38900, 34.73370, 1.4675e-003, 1.3513e-005
 168.88900, 34.84256, 1.4740e-003, 1.3860e-005
 169.38900, 34.95146, 1.4808e-003, 1.4007e-005
 169.88900, 35.06036, 1.4877e-003, 1.3651e-005
 170.38900, 35.16951, 1.4946e-003, 1.3271e-005
 170.88900, 35.27885, 1.5014e-003, 1.4146e-005
 171.38900, 35.38796, 1.5079e-003, 1.3857e-005
 171.88900, 35.49730, 1.5153e-003, 1.3798e-005
 172.38900, 35.60677, 1.5219e-003, 1.3944e-005
 172.88900, 35.71629, 1.5288e-003, 1.5817e-005
 173.38900, 35.82584, 1.5382e-003, 1.6332e-005
 173.88900, 35.93533, 1.5454e-003, 1.3933e-005
 174.38900, 36.04502, 1.5520e-003, 1.3641e-005
 174.88900, 36.15496, 1.5592e-003, 1.3693e-005
 175.38900, 36.26495, 1.5658e-003, 1.4114e-005
 175.88900, 36.37503, 1.5730e-003, 1.4097e-005
 176.38900, 36.48537, 1.5803e-003, 1.4027e-005
 176.88900, 36.59557, 1.5869e-003, 1.3508e-005
 177.38900, 36.70586, 1.5937e-003, 1.3918e-005
 177.88900, 36.81600, 1.6007e-003, 1.4789e-005
 178.38900, 36.92637, 1.6081e-003, 1.3838e-005
 178.88900, 37.03668, 1.6147e-003, 1.3421e-005
 179.38900, 37.14684, 1.6214e-003, 1.4003e-005
 179.88900, 37.25707, 1.6283e-003, 1.3549e-005
 180.38900, 37.36765, 1.6354e-003, 1.8637e-005
 180.88900, 37.47816, 1.6456e-003, 1.5741e-005
 181.38900, 37.58867, 1.6524e-003, 1.3857e-005
 181.88900, 37.69909, 1.6596e-003, 1.4051e-005
 182.38900, 37.80970, 1.6667e-003, 1.4387e-005
 182.88900, 37.92031, 1.6736e-003, 1.3885e-005
 183.38900, 38.03089, 1.6805e-003, 1.3752e-005
 183.88900, 38.14176, 1.6874e-003, 1.3068e-005
 184.38900, 38.25280, 1.6944e-003, 1.4225e-005
 184.88900, 38.36391, 1.7013e-003, 1.4110e-005
 185.38900, 38.47526, 1.7086e-003, 1.3842e-005
 185.88900, 38.58679, 1.7153e-003, 1.4224e-005
 186.38900, 38.69823, 1.7220e-003, 1.3974e-005
 186.88900, 38.80961, 1.7292e-003, 1.4261e-005
 187.38900, 38.92103, 1.7366e-003, 1.3860e-005
 187.88900, 39.03240, 1.7433e-003, 1.3807e-005
 188.38900, 39.14379, 1.7504e-003, 1.3907e-005
 188.88900, 39.25490, 1.7571e-003, 1.3552e-005
 189.38900, 39.36656, 1.7642e-003, 1.9361e-005
 189.88900, 39.47830, 1.7743e-003, 1.5599e-005
 190.38900, 39.59008, 1.7815e-003, 1.3772e-005
 190.88900, 39.70195, 1.7882e-003, 1.4171e-005
 191.38900, 39.81393, 1.7955e-003, 1.4065e-005
 191.88900, 39.92605, 1.8027e-003, 1.4048e-005
 192.38900, 40.03826, 1.8096e-003, 1.3635e-005
 192.88900, 40.15053, 1.8166e-003, 1.4139e-005
 193.38900, 40.26295, 1.8236e-003, 1.3587e-005
 193.88900, 40.37570, 1.8305e-003, 1.4332e-005
 194.38900, 40.48847, 1.8373e-003, 1.3841e-005
 194.88900, 40.60117, 1.8445e-003, 1.4004e-005
 195.38900, 40.71357, 1.8514e-003, 1.4048e-005
 195.88900, 40.82593, 1.8586e-003, 1.3957e-005
 196.38900, 40.93832, 1.8658e-003, 1.3859e-005
 196.88900, 41.05054, 1.8727e-003, 1.4557e-005
 197.38900, 41.16269, 1.8795e-003, 1.3682e-005
 197.88900, 41.27511, 1.8869e-003, 1.3936e-005
 198.38900, 41.38788, 1.8937e-003, 1.4109e-005
 198.88900, 41.50092, 1.9005e-003, 1.3803e-005
 199.38900, 41.61393, 1.9074e-003, 1.3780e-005
 199.88900, 41.72699, 1.9144e-003, 1.4240e-005
 200.38900, 41.84011, 1.9214e-003, 1.4397e-005
 200.88900, 41.95335, 1.9307e-003, 2.0415e-005
 201.38900, 42.06664, 1.9395e-003, 1.8151e-005
 201.88900, 42.17999, 1.9478e-003, 1.4252e-005
 202.38900, 42.29348, 1.9546e-003, 1.3736e-005
 202.88900, 42.40704, 1.9615e-003, 1.3843e-005
 203.38900, 42.52074, 1.9684e-003, 1.3937e-005
 203.88900, 42.63457, 1.9756e-003, 1.4050e-005
 204.38900, 42.74837, 1.9825e-003, 1.3961e-005
 204.88900, 42.86221, 1.9895e-003, 1.4470e-005
 205.38900, 42.97601, 1.9984e-003, 1.6622e-005
 205.88900, 43.08990, 2.0051e-003, 1.3973e-005
 206.38900, 43.20364, 2.0119e-003, 1.4476e-005
 206.88900, 43.31771, 2.0192e-003, 1.3695e-005
 207.38900, 43.43209, 2.0263e-003, 1.4074e-005
 207.88900, 43.54646, 2.0330e-003, 1.4122e-005
 208.38900, 43.66095, 2.0402e-003, 1.3884e-005
 208.88900, 43.77528, 2.0471e-003, 1.4205e-005
 209.38900, 43.88982, 2.0542e-003, 1.4061e-005
 209.88900, 44.00411, 2.0610e-003, 1.3880e-005
 210.38900, 44.11840, 2.0678e-003, 1.4105e-005
 210.88900, 44.23263, 2.0745e-003, 1.3834e-005
 211.38900, 44.34712, 2.0836e-003, 1.7394e-005
 211.88900, 44.46175, 2.0907e-003, 1.3971e-005
 212.38900, 44.57659, 2.0980e-003, 1.4196e-005
 212.88900, 44.69163, 2.1048e-003, 1.3871e-005
 213.38900, 44.80679, 2.1116e-003, 1.4385e-005
 213.88900, 44.92220, 2.1199e-003, 1.5726e-005
 214.38900, 45.03751, 2.1267e-003, 1.4101e-005
 214.88900, 45.15284, 2.1337e-003, 1.3864e-005
 215.38900, 45.26825, 2.1409e-003, 1.4053e-005
 215.88900, 45.38379, 2.1478e-003, 1.4133e-005
 216.38900, 45.49933, 2.1548e-003, 1.3975e-005
 216.88900, 45.61492, 2.1616e-003, 1.3863e-005
 217.38900, 45.73077, 2.1698e-003, 1.7462e-005
 217.88900, 45.84676, 2.1773e-003, 1.3690e-005
 218.38900, 45.96256, 2.1844e-003, 1.4182e-005
 218.88900, 46.07835, 2.1912e-003, 1.4062e-005
 219.38900, 46.19424, 2.1982e-003, 1.4054e-005
 219.88900, 46.31020, 2.2054e-003, 1.4265e-005
 220.38900, 46.42598, 2.2123e-003, 1.3531e-005
 220.88900, 46.54189, 2.2192e-003, 1.4243e-005
 221.38900, 46.65806, 2.2263e-003, 1.4097e-005
 221.88900, 46.77430, 2.2335e-003, 1.4223e-005
 222.38900, 46.89058, 2.2425e-003, 1.7764e-005
 222.88900, 47.00691, 2.2490e-003, 1.3933e-005
 223.38900, 47.12359, 2.2559e-003, 1.3573e-005
 223.88900, 47.24024, 2.2631e-003, 1.4689e-005
 224.38900, 47.35681, 2.2704e-003, 1.4287e-005
 224.88900, 47.47342, 2.2772e-003, 1.4041e-005
 225.38900, 47.59019, 2.2842e-003, 1.4094e-005
 225.88900, 47.70726, 2.2912e-003, 1.3705e-005
 226.38900, 47.82413, 2.2978e-003, 1.3816e-005
 226.88900, 47.94075, 2.3051e-003, 1.4062e-005
 227.38900, 48.05761, 2.3121e-003, 1.4290e-005
 227.88900, 48.17457, 2.3193e-003, 1.4250e-005
 228.38900, 48.29158, 2.3261e-003, 1.8389e-005
 228.88900, 48.40866, 2.3358e-003, 1.4348e-005
 229.38900, 48.52579, 2.3428e-003, 1.3895e-005
 229.88900, 48.64334, 2.3497e-003, 1.3786e-005
 230.38900, 48.76101, 2.3566e-003, 1.4375e-005
 230.88900, 48.87869, 2.3637e-003, 1.3965e-005
 231.38900, 48.99634, 2.3707e-003, 1.3872e-005
 231.88900, 49.11395, 2.3778e-003, 1.3992e-005
 232.38900, 49.23172, 2.3846e-003, 1.4277e-005
 232.88900, 49.34964, 2.3921e-003, 1.3781e-005
 233.38900, 49.46757, 2.3987e-003, 1.3916e-005
 233.88900, 49.58584, 2.4062e-003, 1.7386e-005
 234.38900, 49.70445, 2.4142e-003, 1.3985e-005
 234.88900, 49.82310, 2.4215e-003, 1.7387e-005
 235.38900, 49.94162, 2.4302e-003, 1.4603e-005
 235.88900, 50.06037, 2.4371e-003, 1.3863e-005
 236.38900, 50.17904, 2.4441e-003, 1.3740e-005
 236.88900, 50.29755, 2.4508e-003, 1.4169e-005
 237.38900, 50.41576, 2.4580e-003, 1.3992e-005
 237.88900, 50.53410, 2.4652e-003, 1.4346e-005
 238.38900, 50.65259, 2.4724e-003, 1.4459e-005
 238.88900, 50.77090, 2.4794e-003, 1.4430e-005
 239.38900, 50.88952, 2.4864e-003, 1.4007e-005
 239.88900, 51.00839, 2.4937e-003, 1.4440e-005
 240.38900, 51.12751, 2.5005e-003, 1.4225e-005
 240.88900, 51.24654, 2.5075e-003, 1.7035e-005
 241.38900, 51.36550, 2.5167e-003, 1.4710e-005
 241.88900, 51.48457, 2.5238e-003, 1.3445e-005
 242.38900, 51.60364, 2.5304e-003, 1.4192e-005
 242.88900, 51.72286, 2.5377e-003, 1.4193e-005
 243.38900, 51.84217, 2.5447e-003, 1.4265e-005
 243.88900, 51.96168, 2.5515e-003, 1.4079e-005
 244.38900, 52.08129, 2.5586e-003, 1.4242e-005
 244.88900, 52.20114, 2.5658e-003, 1.3195e-005
 245.38900, 52.32096, 2.5726e-003, 1.4303e-005
 245.88900, 52.44051, 2.5797e-003, 1.4157e-005
 246.38900, 52.56001, 2.5872e-003, 1.7309e-005
 246.88900, 52.67943, 2.5954e-003, 1.4171e-005
 247.38900, 52.79892, 2.6027e-003, 1.4117e-005
 247.88900, 52.91844, 2.6098e-003, 1.4670e-005
 248.38900, 53.03828, 2.6168e-003, 1.3464e-005
 248.88900, 53.15834, 2.6234e-003, 1.4231e-005
 249.38900, 53.27851, 2.6305e-003, 1.3674e-005
 249.88900, 53.39923, 2.6376e-003, 1.6249e-005
 250.38900, 53.52010, 2.6462e-003, 1.4780e-005
 250.88900, 53.64097, 2.6531e-003, 1.4297e-005
 251.38900, 53.76181, 2.6601e-003, 1.3881e-005
 251.88900, 53.88286, 2.6670e-003, 1.3392e-005
 252.38900, 54.00386, 2.6739e-003, 1.3876e-005
 252.88900, 54.12467, 2.6813e-003, 1.4358e-005
 253.38900, 54.24551, 2.6882e-003, 1.4045e-005
 253.88900, 54.36660, 2.6952e-003, 1.4234e-005
 254.38900, 54.48764, 2.7023e-003, 1.6825e-005
 254.88900, 54.60843, 2.7107e-003, 1.4310e-005
 255.38900, 54.72931, 2.7178e-003, 1.4177e-005
 255.88900, 54.85025, 2.7249e-003, 1.4557e-005
 256.38900, 54.97126, 2.7318e-003, 1.3307e-005
 256.88900, 55.09213, 2.7389e-003, 1.4053e-005
 257.38900, 55.21313, 2.7458e-003, 1.5031e-005
 257.88900, 55.33448, 2.7550e-003, 1.7038e-005
 258.38900, 55.45611, 2.7623e-003, 1.4144e-005
 258.88900, 55.57801, 2.7694e-003, 1.3909e-005
 259.38900, 55.69991, 2.7759e-003, 1.4213e-005
 259.88900, 55.82210, 2.7832e-003, 1.4137e-005
 260.38900, 55.94437, 2.7899e-003, 1.3890e-005
 260.88900, 56.06664, 2.7970e-003, 1.3886e-005
 261.38900, 56.18886, 2.8039e-003, 1.3705e-005
 261.88900, 56.31098, 2.8109e-003, 1.4628e-005
 262.38900, 56.43328, 2.8185e-003, 1.5691e-005
 262.88900, 56.55546, 2.8273e-003, 1.6640e-005
 263.38900, 56.67768, 2.8343e-003, 1.4145e-005
 263.88900, 56.80016, 2.8417e-003, 1.4007e-005
 264.38900, 56.92287, 2.8487e-003, 1.3797e-005
 264.88900, 57.04566, 2.8554e-003, 1.4323e-005
 265.38900, 57.16861, 2.8626e-003, 1.4772e-005
 265.88900, 57.29159, 2.8699e-003, 1.4046e-005
 266.38900, 57.41485, 2.8770e-003, 1.5927e-005
 266.88900, 57.53819, 2.8851e-003, 1.4066e-005
 267.38900, 57.66157, 2.8919e-003, 1.3982e-005
 267.88900, 57.78487, 2.8988e-003, 1.4062e-005
 268.38900, 57.90822, 2.9058e-003, 1.4160e-005
 268.88900, 58.03175, 2.9127e-003, 1.4042e-005
 269.38900, 58.15508, 2.9210e-003, 1.6699e-005
 269.88900, 58.27866, 2.9285e-003, 1.4558e-005
 270.38900, 58.40227, 2.9351e-003, 1.3844e-005
 270.88900, 58.52593, 2.9422e-003, 1.4383e-005
 271.38900, 58.64989, 2.9495e-003, 1.3582e-005
 271.88900, 58.77378, 2.9565e-003, 1.3706e-005
 272.38900, 58.89776, 2.9631e-003, 1.3967e-005
 272.88900, 59.02159, 2.9703e-003, 1.4769e-005
 273.38900, 59.14557, 2.9777e-003, 1.3641e-005
 273.88900, 59.26972, 2.9845e-003, 1.4586e-005
 274.38900, 59.39379, 2.9915e-003, 1.7059e-005
 274.88900, 59.51798, 3.0008e-003, 1.4564e-005
 275.38900, 59.64223, 3.0071e-003, 1.2882e-005
 275.88900, 59.76660, 3.0140e-003, 1.4461e-005
 276.38900, 59.89089, 3.0211e-003, 1.4216e-005
 276.88900, 60.01541, 3.0283e-003, 1.3676e-005
 277.38900, 60.13995, 3.0353e-003, 1.4209e-005
 277.88900, 60.26457, 3.0419e-003, 1.4053e-005
 278.38900, 60.38902, 3.0503e-003, 1.8548e-005
 278.88900, 60.51387, 3.0580e-003, 1.4081e-005
 279.38900, 60.63860, 3.0652e-003, 1.4455e-005
 279.88900, 60.76334, 3.0724e-003, 1.3845e-005
 280.38900, 60.88814, 3.0793e-003, 1.4357e-005
 280.88900, 61.01295, 3.0869e-003, 1.7170e-005
 281.38900, 61.13828, 3.0950e-003, 1.4162e-005
 281.88900, 61.26373, 3.1020e-003, 1.3798e-005
 282.38900, 61.38941, 3.1088e-003, 1.3681e-005
 282.88900, 61.51533, 3.1165e-003, 1.4228e-005
 283.38900, 61.64106, 3.1231e-003, 1.4168e-005
 283.88900, 61.76692, 3.1302e-003, 1.5970e-005
 284.38900, 61.89269, 3.1381e-003, 1.3873e-005
 284.88900, 62.01852, 3.1449e-003, 1.4013e-005
 285.38900, 62.14446, 3.1523e-003, 1.4532e-005
 285.88900, 62.27065, 3.1605e-003, 1.6098e-005
 286.38900, 62.39721, 3.1671e-003, 1.3874e-005
 286.88900, 62.52394, 3.1740e-003, 1.4172e-005
 287.38900, 62.65072, 3.1814e-003, 1.4158e-005
 287.88900, 62.77739, 3.1884e-003, 1.4152e-005
 288.38900, 62.90424, 3.1956e-003, 1.4072e-005
 288.88900, 63.03118, 3.2027e-003, 1.5935e-005
 289.38900, 63.15810, 3.2105e-003, 1.3314e-005
 289.88900, 63.28485, 3.2173e-003, 1.5115e-005
 290.38900, 63.41175, 3.2254e-003, 1.4631e-005
 290.88900, 63.53863, 3.2322e-003, 1.4282e-005
 291.38900, 63.66530, 3.2393e-003, 1.4085e-005
 291.88900, 63.79205, 3.2464e-003, 1.4108e-005
 292.38900, 63.91892, 3.2536e-003, 1.4399e-005
 292.88900, 64.04589, 3.2609e-003, 1.3979e-005
 293.38900, 64.17270, 3.2685e-003, 1.4808e-005
 293.88900, 64.29966, 3.2753e-003, 1.3980e-005
 294.38900, 64.42685, 3.2823e-003, 1.4139e-005
 294.88900, 64.55403, 3.2900e-003, 1.4948e-005
 295.38900, 64.68135, 3.2964e-003, 1.3395e-005
 295.88900, 64.80889, 3.3033e-003, 1.4298e-005
 296.38900, 64.93685, 3.3112e-003, 1.6264e-005
 296.88900, 65.06505, 3.3191e-003, 1.4829e-005
 297.38900, 65.19349, 3.3262e-003, 1.4350e-005
 297.88900, 65.32188, 3.3331e-003, 1.3995e-005
 298.38900, 65.45041, 3.3403e-003, 1.4348e-005
 298.88900, 65.57898, 3.3474e-003, 1.4572e-005
 299.38900, 65.70748, 3.3543e-003, 1.5903e-005
 299.88900, 65.83556, 3.3624e-003, 1.4525e-005
 300.38900, 65.96430, 3.3696e-003, 1.3440e-005
 300.88900, 66.09349, 3.3773e-003, 1.5228e-005
 301.38900, 66.22277, 3.3842e-003, 1.4741e-005
 301.88900, 66.35208, 3.3911e-003, 1.3697e-005
 302.38900, 66.48172, 3.3983e-003, 1.4414e-005
 302.88900, 66.61139, 3.4055e-003, 1.4342e-005
 303.38900, 66.74073, 3.4125e-003, 1.4225e-005
 303.88900, 66.86973, 3.4211e-003, 1.6969e-005
 304.38900, 66.99879, 3.4281e-003, 1.4088e-005
 304.88900, 67.12785, 3.4347e-003, 1.3775e-005
 305.38900, 67.25703, 3.4421e-003, 1.4081e-005
 305.88900, 67.38629, 3.4490e-003, 1.4251e-005
 306.38900, 67.51551, 3.4554e-003, 1.4847e-005
 306.88900, 67.64497, 3.4646e-003, 1.6923e-005
 307.38900, 67.77482, 3.4720e-003, 1.4073e-005
 307.88900, 67.90467, 3.4790e-003, 1.3644e-005
 308.38900, 68.03464, 3.4856e-003, 1.4261e-005
 308.88900, 68.16470, 3.4926e-003, 1.3634e-005
 309.38900, 68.29506, 3.4995e-003, 1.4055e-005
 309.88900, 68.42527, 3.5069e-003, 1.4908e-005
 310.38900, 68.55534, 3.5146e-003, 1.4093e-005
 310.88900, 68.68570, 3.5215e-003, 1.4305e-005
 311.38900, 68.81627, 3.5282e-003, 1.3178e-005
 311.88900, 68.94699, 3.5355e-003, 1.4196e-005
 312.38900, 69.07779, 3.5424e-003, 1.3699e-005
 312.88900, 69.20878, 3.5495e-003, 1.5893e-005
 313.38900, 69.33983, 3.5571e-003, 1.3716e-005
 313.88900, 69.47058, 3.5642e-003, 1.4432e-005
 314.38900, 69.60128, 3.5711e-003, 1.4522e-005
 314.88900, 69.73219, 3.5792e-003, 1.5124e-005
 315.38900, 69.86328, 3.5863e-003, 1.3701e-005
 315.88900, 69.99441, 3.5932e-003, 1.4314e-005
 316.38900, 70.12562, 3.6012e-003, 1.5610e-005
 316.88900, 70.25703, 3.6081e-003, 1.3799e-005
 317.38900, 70.38818, 3.6149e-003, 1.3865e-005
 317.88900, 70.51947, 3.6221e-003, 1.3623e-005
 318.38900, 70.65055, 3.6294e-003, 1.5439e-005
 318.88900, 70.78184, 3.6366e-003, 1.3714e-005
 319.38900, 70.91326, 3.6438e-003, 1.4134e-005
 319.88900, 71.04510, 3.6508e-003, 1.6103e-005
 320.38900, 71.17715, 3.6584e-003, 1.4129e-005
 320.88900, 71.30927, 3.6658e-003, 1.3695e-005
 321.38900, 71.44148, 3.6723e-003, 1.3638e-005
 321.88900, 71.57369, 3.6797e-003, 1.4141e-005
 322.38900, 71.70575, 3.6867e-003, 1.4147e-005
 322.88900, 71.83796, 3.6934e-003, 1.4132e-005
 323.38900, 71.97050, 3.7007e-003, 1.4222e-005
 323.88900, 72.10296, 3.7076e-003, 1.3993e-005
 324.38900, 72.23555, 3.7146e-003, 1.5241e-005
 324.88900, 72.36812, 3.7224e-003, 1.5159e-005
 325.38900, 72.50097, 3.7303e-003, 1.4565e-005
 325.88900, 72.63380, 3.7375e-003, 1.4779e-005
 326.38900, 72.76659, 3.7443e-003, 1.3965e-005
 326.88900, 72.89944, 3.7512e-003, 1.3811e-005
 327.38900, 73.03256, 3.7582e-003, 1.3902e-005
 327.88900, 73.16552, 3.7658e-003, 1.5662e-005
 328.38900, 73.29824, 3.7739e-003, 1.5086e-005
 328.88900, 73.43098, 3.7810e-003, 1.4364e-005
 329.38900, 73.56381, 3.7879e-003, 1.4147e-005
 329.88900, 73.69679, 3.7949e-003, 1.3789e-005
 330.38900, 73.82999, 3.8019e-003, 1.4052e-005
 330.88900, 73.96343, 3.8089e-003, 1.5153e-005
 331.38900, 74.09718, 3.8169e-003, 1.3820e-005
 331.88900, 74.23116, 3.8238e-003, 1.4325e-005
 332.38900, 74.36542, 3.8310e-003, 1.4537e-005
 332.88900, 74.49971, 3.8380e-003, 1.4452e-005
 333.38900, 74.63392, 3.8457e-003, 1.5633e-005
 333.88900, 74.76856, 3.8527e-003, 1.3720e-005
 334.38900, 74.90313, 3.8599e-003, 1.3905e-005
 334.88900, 75.03782, 3.8666e-003, 1.4836e-005
 335.38900, 75.17295, 3.8738e-003, 1.4028e-005
 335.88900, 75.30825, 3.8812e-003, 1.4142e-005
 336.38900, 75.44363, 3.8882e-003, 1.4256e-005
 336.88900, 75.57883, 3.8954e-003, 1.4785e-005
 337.38900, 75.71419, 3.9026e-003, 1.5349e-005
 337.88900, 75.84952, 3.9101e-003, 1.3871e-005
 338.38900, 75.98444, 3.9174e-003, 1.5156e-005
 338.88900, 76.11922, 3.9244e-003, 1.4008e-005
 339.38900, 76.25411, 3.9318e-003, 1.4551e-005
 339.88900, 76.38930, 3.9388e-003, 1.4235e-005
 340.38900, 76.52429, 3.9459e-003, 1.4096e-005
 340.88900, 76.65969, 3.9531e-003, 1.4436e-005
 341.38900, 76.79537, 3.9606e-003, 1.4464e-005
 341.88900, 76.93112, 3.9676e-003, 1.5136e-005
 342.38900, 77.06697, 3.9751e-003, 1.4341e-005
 342.88900, 77.20289, 3.9827e-003, 1.4247e-005
 343.38900, 77.33902, 3.9895e-003, 1.4806e-005
 343.88900, 77.47507, 3.9972e-003, 1.5609e-005
 344.38900, 77.61163, 4.0045e-003, 1.4819e-005
 344.88900, 77.74839, 4.0123e-003, 1.4924e-005
 345.38900, 77.88535, 4.0197e-003, 1.4576e-005
 345.88900, 78.02232, 4.0275e-003, 1.5858e-005
 346.38900, 78.15962, 4.0351e-003, 1.5195e-005
 346.88900, 78.29712, 4.0430e-003, 1.5466e-005
 347.38900, 78.43467, 4.0502e-003, 1.6587e-005
 347.88900, 78.57266, 4.0583e-003, 1.5061e-005
 348.38900, 78.71120, 4.0655e-003, 1.4844e-005
 348.88900, 78.84999, 4.0732e-003, 1.5586e-005
 349.38900, 78.98901, 4.0809e-003, 1.4885e-005
 349.88900, 79.12813, 4.0884e-003, 1.5972e-005
 350.38900, 79.26731, 4.0964e-003, 1.5106e-005
 350.88900, 79.40666, 4.1047e-003, 1.5209e-005
 351.38900, 79.54599, 4.1115e-003, 1.5020e-005
 351.88900, 79.68526, 4.1185e-003, 1.4442e-005
 352.38900, 79.82468, 4.1264e-003, 1.4663e-005
 352.88900, 79.96415, 4.1334e-003, 1.4927e-005
 353.38900, 80.10307, 4.1410e-003, 1.4930e-005
 353.88900, 80.24204, 4.1482e-003, 1.4480e-005
 354.38900, 80.38096, 4.1550e-003, 1.3344e-005
 354.88900, 80.51923, 4.1619e-003, 1.4349e-005
 355.38900, 80.65686, 4.1691e-003, 1.4029e-005
 355.88900, 80.79420, 4.1762e-003, 1.4376e-005
 356.38900, 80.93100, 4.1831e-003, 1.3373e-005
 356.88900, 81.06719, 4.1896e-003, 1.2915e-005
 357.38900, 81.20313, 4.1960e-003, 1.3416e-005
 357.88900, 81.33906, 4.2031e-003, 1.3571e-005
 358.38900, 81.47439, 4.2095e-003, 1.3005e-005
 358.88900, 81.60905, 4.2160e-003, 1.2709e-005
 359.38900, 81.74323, 4.2225e-003, 1.3648e-005
 359.88900, 81.87696, 4.2295e-003, 1.2948e-005
 360.38900, 82.00985, 4.2360e-003, 1.3227e-005
 360.88900, 82.14250, 4.2426e-003, 1.3164e-005
 361.38900, 82.27487, 4.2490e-003, 1.2898e-005
 361.88900, 82.40702, 4.2558e-003, 1.3578e-005
 362.38900, 82.53910, 4.2623e-003, 1.3258e-005
 362.88900, 82.67109, 4.2690e-003, 1.2937e-005
 363.38900, 82.80317, 4.2752e-003, 1.3088e-005
 363.88900, 82.93530, 4.2818e-003, 1.3172e-005
 364.38900, 83.06726, 4.2884e-003, 1.3668e-005
 364.88900, 83.19907, 4.2956e-003, 1.3474e-005
 365.38900, 83.33105, 4.3021e-003, 1.3300e-005
 365.88900, 83.46301, 4.3089e-003, 1.3960e-005
 366.38900, 83.59549, 4.3159e-003, 1.4132e-005
 366.88900, 83.72795, 4.3227e-003, 1.3397e-005
 367.38900, 83.86078, 4.3295e-003, 1.3533e-005
 367.88900, 83.99372, 4.3366e-003, 1.3075e-005
 368.38900, 84.12679, 4.3432e-003, 1.3837e-005
 368.88900, 84.25991, 4.3501e-003, 1.4203e-005
 369.38900, 84.39333, 4.3569e-003, 1.3779e-005
 369.88900, 84.52709, 4.3640e-003, 1.4347e-005
 370.38900, 84.66129, 4.3711e-003, 1.4285e-005
 370.88900, 84.79567, 4.3784e-003, 1.4973e-005
 371.38900, 84.93030, 4.3855e-003, 1.3782e-005
 371.88900, 85.06539, 4.3925e-003, 1.3608e-005
 372.38900, 85.20082, 4.3998e-003, 1.4411e-005
 372.88900, 85.33656, 4.4066e-003, 1.3905e-005
 373.38900, 85.47266, 4.4141e-003, 1.4740e-005
 373.88900, 85.60920, 4.4208e-003, 1.3990e-005
 374.38900, 85.74592, 4.4282e-003, 1.4015e-005
 374.88900, 85.88289, 4.4349e-003, 1.4192e-005
 375.38900, 86.02000, 4.4423e-003, 1.4682e-005
 375.88900, 86.15736, 4.4494e-003, 1.4022e-005
 376.38900, 86.29484, 4.4564e-003, 1.4011e-005
 376.88900, 86.43227, 4.4635e-003, 1.4078e-005
 377.38900, 86.56992, 4.4707e-003, 1.4289e-005
 377.88900, 86.70797, 4.4778e-003, 1.4430e-005
 378.38900, 86.84613, 4.4848e-003, 1.4237e-005
 378.88900, 86.98453, 4.4918e-003, 1.4371e-005
 379.38900, 87.12300, 4.4989e-003, 1.4181e-005
 379.88900, 87.26159, 4.5060e-003, 1.3760e-005
 380.38900, 87.40071, 4.5131e-003, 1.4458e-005
 380.88900, 87.53985, 4.5205e-003, 1.4181e-005
 381.38900, 87.67915, 4.5275e-003, 1.4071e-005
 381.88900, 87.81869, 4.5343e-003, 1.4219e-005
 382.38900, 87.95866, 4.5417e-003, 1.4221e-005
 382.88900, 88.09819, 4.5486e-003, 1.4315e-005
 383.38900, 88.23805, 4.5558e-003, 1.4094e-005
 383.88900, 88.37801, 4.5628e-003, 1.4587e-005
 384.38900, 88.51839, 4.5705e-003, 1.4453e-005
 384.88900, 88.65892, 4.5778e-003, 1.3628e-005
 385.38900, 88.79981, 4.5848e-003, 1.4248e-005
 385.88900, 88.94085, 4.5919e-003, 1.4297e-005
 386.38900, 89.08227, 4.5989e-003, 1.3998e-005
 386.88900, 89.22375, 4.6060e-003, 1.3978e-005
 387.38900, 89.36542, 4.6131e-003, 1.4491e-005
 387.88900, 89.50700, 4.6204e-003, 1.4205e-005
 388.38900, 89.64909, 4.6273e-003, 1.4091e-005
 388.88900, 89.79143, 4.6347e-003, 1.4320e-005
 389.38900, 89.93378, 4.6422e-003, 1.4143e-005
 389.88900, 90.07651, 4.6491e-003, 1.4375e-005
 390.38900, 90.21956, 4.6564e-003, 1.4371e-005
 390.88900, 90.36218, 4.6634e-003, 1.4649e-005
 391.38900, 90.50496, 4.6705e-003, 1.4626e-005
 391.88900, 90.64809, 4.6776e-003, 1.4008e-005
 392.38900, 90.79128, 4.6848e-003, 1.3756e-005
 392.88900, 90.93456, 4.6921e-003, 1.4607e-005
 393.38900, 91.07821, 4.6989e-003, 1.3683e-005
 393.88900, 91.22187, 4.7063e-003, 1.5170e-005
 394.38900, 91.36579, 4.7132e-003, 1.4231e-005
 394.88900, 91.50983, 4.7208e-003, 1.4552e-005
 395.38900, 91.65395, 4.7279e-003, 1.4205e-005
 395.88900, 91.79807, 4.7348e-003, 1.4348e-005
 396.38900, 91.94247, 4.7420e-003, 1.4438e-005
 396.88900, 92.08693, 4.7492e-003, 1.3707e-005
 397.38900, 92.23141, 4.7566e-003, 1.4748e-005
 397.88900, 92.37639, 4.7634e-003, 1.4953e-005
 398.38900, 92.52196, 4.7705e-003, 1.4431e-005
 398.88900, 92.66730, 4.7777e-003, 1.3838e-005
 399.38900, 92.81237, 4.7851e-003, 1.4317e-005
 399.88900, 92.95786, 4.7918e-003, 1.4443e-005
 400.38900, 93.10320, 4.7993e-003, 1.4152e-005
 400.88900, 93.24839, 4.8065e-003, 1.4213e-005
 401.38900, 93.39390, 4.8137e-003, 1.4022e-005
 401.88900, 93.53986, 4.8205e-003, 1.4372e-005
 402.38900, 93.68555, 4.8273e-003, 1.3522e-005
 402.88900, 93.83150, 4.8347e-003, 1.4374e-005
 403.38900, 93.97720, 4.8418e-003, 1.4498e-005
 403.88900, 94.12317, 4.8489e-003, 1.4342e-005
 404.38900, 94.26888, 4.8560e-003, 1.4205e-005
 404.88900, 94.41472, 4.8631e-003, 1.4360e-005
 405.38900, 94.56055, 4.8704e-003, 1.4544e-005
 405.88900, 94.70697, 4.8775e-003, 1.3361e-005
 406.38900, 94.85302, 4.8841e-003, 1.4699e-005
 406.88900, 94.99953, 4.8914e-003, 1.4327e-005
 407.38900, 95.14620, 4.8985e-003, 1.3233e-005
 407.88900, 95.29298, 4.9054e-003, 1.4283e-005
 408.38900, 95.43981, 4.9130e-003, 1.4505e-005
 408.88900, 95.58671, 4.9198e-003, 1.4092e-005
 409.38900, 95.73375, 4.9266e-003, 1.3770e-005
 409.88900, 95.88067, 4.9338e-003, 1.4376e-005
 410.38900, 96.02773, 4.9408e-003, 1.4340e-005
 410.88900, 96.17484, 4.9480e-003, 1.4319e-005
 411.38900, 96.32227, 4.9553e-003, 1.3863e-005
 411.88900, 96.46949, 4.9625e-003, 1.4104e-005
 412.38900, 96.61700, 4.9692e-003, 1.3645e-005
 412.88900, 96.76465, 4.9767e-003, 1.4487e-005
 413.38900, 96.91242, 4.9833e-003, 1.4331e-005
 413.88900, 97.06016, 4.9906e-003, 1.4680e-005
 414.38900, 97.20821, 4.9978e-003, 1.3942e-005
 414.88900, 97.35640, 5.0049e-003, 1.4176e-005
 415.38900, 97.50447, 5.0121e-003, 1.4766e-005
 415.88900, 97.65272, 5.0190e-003, 1.4732e-005
 416.38900, 97.80108, 5.0265e-003, 1.4374e-005
 416.88900, 97.94923, 5.0334e-003, 1.3374e-005
 417.38900, 98.09760, 5.0405e-003, 1.4798e-005
 417.88900, 98.24580, 5.0478e-003, 1.3996e-005
 418.38900, 98.39395, 5.0547e-003, 1.4250e-005
 418.88900, 98.54198, 5.0621e-003, 1.4693e-005
 419.38900, 98.69040, 5.0692e-003, 1.3490e-005
 419.88900, 98.83867, 5.0761e-003, 1.3722e-005
 420.38900, 98.98759, 5.0832e-003, 1.3863e-005
 420.88900, 99.13672, 5.0900e-003, 1.3969e-005
 421.38900, 99.28606, 5.0971e-003, 1.4909e-005
 421.88900, 99.43536, 5.1045e-003, 1.3707e-005
 422.38900, 99.58488, 5.1112e-003, 1.4058e-005
 422.88900, 99.73403, 5.1181e-003, 1.3781e-005
 423.38900, 99.88321, 5.1252e-003, 1.4121e-005
 423.88900,100.03230, 5.1322e-003, 1.3633e-005
 424.38900,100.18170, 5.1391e-003, 1.4346e-005
 424.88900,100.33084, 5.1467e-003, 1.4041e-005
 425.38900,100.48021, 5.1538e-003, 1.4359e-005
 425.88900,100.62978, 5.1611e-003, 1.3654e-005
 426.38900,100.77945, 5.1675e-003, 1.4164e-005
 426.88900,100.92933, 5.1746e-003, 1.3769e-005
 427.38900,101.07950, 5.1815e-003, 1.3995e-005
 427.88900,101.22981, 5.1884e-003, 1.4023e-005
 428.38900,101.37984, 5.1955e-003, 1.3964e-005
 428.88900,101.53037, 5.2025e-003, 1.4057e-005
 429.38900,101.68147, 5.2096e-003, 1.4035e-005
 429.88900,101.83225, 5.2170e-003, 1.3741e-005
 430.38900,101.98254, 5.2240e-003, 1.4399e-005
 430.88900,102.13312, 5.2316e-003, 1.3281e-005
 431.38900,102.28323, 5.2383e-003, 1.4364e-005
 431.88900,102.43304, 5.2455e-003, 1.4154e-005
 432.38900,102.58311, 5.2524e-003, 1.3996e-005
 432.88900,102.73371, 5.2595e-003, 1.4244e-005
 433.38900,102.88447, 5.2666e-003, 1.3894e-005
 433.88900,103.03546, 5.2735e-003, 1.4584e-005
 434.38900,103.18643, 5.2806e-003, 1.3457e-005
 434.88900,103.33703, 5.2876e-003, 1.4203e-005
 435.38900,103.48786, 5.2948e-003, 1.3402e-005
 435.88900,103.63890, 5.3012e-003, 1.4375e-005
 436.38900,103.78955, 5.3087e-003, 1.4065e-005
 436.88900,103.94065, 5.3157e-003, 1.3596e-005
 437.38900,104.09221, 5.3230e-003, 1.4413e-005
 437.88900,104.24382, 5.3294e-003, 1.4695e-005
 438.38900,104.39533, 5.3367e-003, 1.3829e-005
 438.88900,104.54676, 5.3438e-003, 1.4326e-005
 439.38900,104.69808, 5.3507e-003, 1.3552e-005
 439.88900,104.84956, 5.3577e-003, 1.4683e-005
 440.38900,105.00119, 5.3650e-003, 1.4483e-005
 440.88900,105.15326, 5.3722e-003, 1.3794e-005
 441.38900,105.30564, 5.3790e-003, 1.3892e-005
 441.88900,105.45817, 5.3865e-003, 1.4400e-005
 442.38900,105.61071, 5.3935e-003, 1.4111e-005
 442.88900,105.76348, 5.4004e-003, 1.4443e-005
 443.38900,105.91624, 5.4076e-003, 1.4666e-005
 443.88900,106.06922, 5.4147e-003, 1.3900e-005
 444.38900,106.22187, 5.4216e-003, 1.4739e-005
 444.88900,106.37457, 5.4286e-003, 1.3773e-005
 445.38900,106.52729, 5.4356e-003, 1.3234e-005
 445.88900,106.68006, 5.4427e-003, 1.4148e-005
 446.38900,106.83298, 5.4497e-003, 1.4508e-005
 446.88900,106.98599, 5.4568e-003, 1.4245e-005
 447.38900,107.13884, 5.4639e-003, 1.3497e-005
 447.88900,107.29154, 5.4705e-003, 1.4008e-005
 448.38900,107.44431, 5.4780e-003, 1.4046e-005
 448.88900,107.59693, 5.4850e-003, 1.4080e-005
 449.38900,107.74955, 5.4918e-003, 1.3953e-005
 449.88900,107.90214, 5.4989e-003, 1.4719e-005
 450.38900,108.05495, 5.5063e-003, 1.4157e-005
 450.88900,108.20799, 5.5130e-003, 1.3975e-005
 451.38900,108.36157, 5.5204e-003, 1.3896e-005
 451.88900,108.51551, 5.5271e-003, 1.4301e-005
 452.38900,108.66961, 5.5340e-003, 1.3665e-005
 452.88900,108.82315, 5.5411e-003, 1.4064e-005
 453.38900,108.97683, 5.5482e-003, 1.3927e-005
 453.88900,109.13002, 5.5557e-003, 1.4857e-005
 454.38900,109.28315, 5.5622e-003, 1.3550e-005
 454.88900,109.43659, 5.5692e-003, 1.4285e-005
 455.38900,109.59050, 5.5761e-003, 1.3817e-005
 455.88900,109.74421, 5.5831e-003, 1.4902e-005
 456.38900,109.89802, 5.5902e-003, 1.3796e-005
 456.88900,110.05176, 5.5976e-003, 1.4502e-005
 457.38900,110.20561, 5.6046e-003, 1.4069e-005
 457.88900,110.35926, 5.6119e-003, 1.4309e-005
 458.38900,110.51327, 5.6188e-003, 1.3740e-005
 458.88900,110.66775, 5.6259e-003, 1.4908e-005
 459.38900,110.82235, 5.6330e-003, 1.3928e-005
 459.88900,110.97707, 5.6403e-003, 1.4044e-005
 460.38900,111.13186, 5.6475e-003, 1.4238e-005
 460.88900,111.28658, 5.6542e-003, 1.4824e-005
 461.38900,111.44136, 5.6612e-003, 1.3974e-005
 461.88900,111.59631, 5.6681e-003, 1.3843e-005
 462.38900,111.75130, 5.6756e-003, 1.4351e-005
 462.88900,111.90674, 5.6829e-003, 1.4239e-005
 463.38900,112.06174, 5.6896e-003, 1.3825e-005
 463.88900,112.21716, 5.6967e-003, 1.4598e-005
 464.38900,112.37284, 5.7038e-003, 1.4060e-005
 464.88900,112.52869, 5.7109e-003, 1.4833e-005
 465.38900,112.68470, 5.7180e-003, 1.3210e-005
 465.88900,112.84091, 5.7253e-003, 1.4121e-005
 466.38900,112.99682, 5.7322e-003, 1.4882e-005
 466.88900,113.15256, 5.7394e-003, 1.4850e-005
 467.38900,113.30843, 5.7465e-003, 1.4308e-005
 467.88900,113.46407, 5.7532e-003, 1.4230e-005
 468.38900,113.61972, 5.7602e-003, 1.4267e-005
 468.88900,113.77543, 5.7675e-003, 1.4278e-005
 469.38900,113.93094, 5.7746e-003, 1.4196e-005
 469.88900,114.08637, 5.7817e-003, 1.3816e-005
 470.38900,114.24230, 5.7886e-003, 1.4878e-005
 470.88900,114.39877, 5.7959e-003, 1.3601e-005
 471.38900,114.55554, 5.8029e-003, 1.3519e-005
 471.88900,114.71266, 5.8097e-003, 1.3998e-005
 472.38900,114.87029, 5.8168e-003, 1.4138e-005
 472.88900,115.02732, 5.8237e-003, 1.4130e-005
 473.38900,115.18427, 5.8313e-003, 1.3830e-005
 473.88900,115.34120, 5.8384e-003, 1.4172e-005
 474.38900,115.49790, 5.8456e-003, 1.4669e-005
 474.88900,115.65483, 5.8528e-003, 1.3056e-005
 475.38900,115.81165, 5.8597e-003, 1.4480e-005
 475.88900,115.96901, 5.8668e-003, 1.4559e-005
 476.38900,116.12635, 5.8739e-003, 1.3788e-005
 476.88900,116.28404, 5.8811e-003, 1.3780e-005
 477.38900,116.44132, 5.8880e-003, 1.4404e-005
 477.88900,116.59894, 5.8947e-003, 1.3957e-005
 478.38900,116.75670, 5.9023e-003, 1.4046e-005
 478.88900,116.91479, 5.9090e-003, 1.4333e-005
 479.38900,117.07313, 5.9158e-003, 1.3829e-005
 479.88900,117.23166, 5.9232e-003, 1.3999e-005
 480.38900,117.38928, 5.9302e-003, 1.4663e-005
 480.88900,117.54724, 5.9372e-003, 1.4155e-005
 481.38900,117.70486, 5.9448e-003, 1.4451e-005
 481.88900,117.86279, 5.9517e-003, 1.3595e-005
 482.38900,118.02108, 5.9585e-003, 1.4663e-005
 482.88900,118.17958, 5.9657e-003, 1.3726e-005
 483.38900,118.33785, 5.9730e-003, 1.4251e-005
 483.88900,118.49564, 5.9795e-003, 1.3890e-005
 484.38900,118.65362, 5.9869e-003, 1.4208e-005
 484.88900,118.81162, 5.9936e-003, 1.4118e-005
 485.38900,118.96977, 6.0010e-003, 1.4133e-005
 485.88900,119.12815, 6.0077e-003, 1.4567e-005
 486.38900,119.28651, 6.0150e-003, 1.4082e-005
 486.88900,119.44515, 6.0222e-003, 1.3881e-005
 487.38900,119.60395, 6.0290e-003, 1.4109e-005
 487.88900,119.76266, 6.0360e-003, 1.4443e-005
 488.38900,119.92190, 6.0432e-003, 1.4071e-005
 488.88900,120.08097, 6.0506e-003, 1.3748e-005
 489.38900,120.24019, 6.0574e-003, 1.5145e-005
 489.88900,120.39958, 6.0646e-003, 1.4367e-005
 490.38900,120.55916, 6.0717e-003, 1.3583e-005
 490.88900,120.71900, 6.0791e-003, 1.4664e-005
 491.38900,120.87871, 6.0858e-003, 1.4142e-005
 491.88900,121.03844, 6.0931e-003, 1.3631e-005
 492.38900,121.19859, 6.1004e-003, 1.4514e-005
 492.88900,121.35856, 6.1069e-003, 1.4422e-005
 493.38900,121.51849, 6.1142e-003, 1.3648e-005
 493.88900,121.67795, 6.1214e-003, 1.4673e-005
 494.38900,121.83752, 6.1279e-003, 1.3215e-005
 494.88900,121.99685, 6.1356e-003, 1.4411e-005
 495.38900,122.15625, 6.1423e-003, 1.4967e-005
 495.88900,122.31570, 6.1496e-003, 1.3217e-005
 496.38900,122.47610, 6.1570e-003, 1.4633e-005
 496.88900,122.63642, 6.1635e-003, 1.3472e-005
 497.38900,122.79677, 6.1705e-003, 1.4004e-005
 497.88900,122.95766, 6.1774e-003, 1.4782e-005
 498.38900,123.11826, 6.1848e-003, 1.3418e-005
 498.88900,123.27874, 6.1916e-003, 1.4075e-005
 499.38900,123.43926, 6.1986e-003, 1.4378e-005
 499.88900,123.59970, 6.2058e-003, 1.4052e-005
 500.38900,123.75990, 6.2132e-003, 1.4853e-005
 500.88900,123.92008, 6.2201e-003, 1.4073e-005
 501.38900,124.08054, 6.2274e-003, 1.4476e-005
 501.88900,124.24111, 6.2342e-003, 1.4810e-005
 502.38900,124.40211, 6.2419e-003, 1.4134e-005
 502.88900,124.56392, 6.2488e-003, 1.5020e-005
 503.38900,124.72553, 6.2560e-003, 1.4824e-005
 503.88900,124.88748, 6.2633e-003, 1.4716e-005
 504.38900,125.04991, 6.2709e-003, 1.6071e-005
 504.88900,125.21292, 6.2786e-003, 1.4489e-005
 505.38900,125.37651, 6.2862e-003, 1.5815e-005
 505.88900,125.54045, 6.2936e-003, 1.4713e-005
 506.38900,125.70433, 6.3015e-003, 1.5300e-005
 506.88900,125.86809, 6.3091e-003, 1.5925e-005
 507.38900,126.03183, 6.3166e-003, 1.4843e-005
 507.88900,126.19624, 6.3240e-003, 1.5413e-005
 508.38900,126.36083, 6.3316e-003, 1.5087e-005
 508.88900,126.52617, 6.3393e-003, 1.5185e-005
 509.38900,126.69148, 6.3470e-003, 1.4918e-005
 509.88900,126.85689, 6.3543e-003, 1.4898e-005
 510.38900,127.02238, 6.3615e-003, 1.3639e-005
 510.88900,127.18735, 6.3685e-003, 1.4033e-005
 511.38900,127.35172, 6.3755e-003, 1.4533e-005
 511.88900,127.51501, 6.3824e-003, 1.3300e-005
 512.38900,127.67743, 6.3894e-003, 1.5080e-005
 512.88900,127.83894, 6.3963e-003, 1.2873e-005
 513.38900,127.99955, 6.4034e-003, 1.3970e-005
 513.88900,128.15965, 6.4097e-003, 1.3109e-005
 514.38900,128.31954, 6.4162e-003, 1.3201e-005
 514.88900,128.47869, 6.4229e-003, 1.3855e-005
 515.38900,128.63717, 6.4295e-003, 1.3399e-005
 515.88900,128.79585, 6.4359e-003, 1.2598e-005
 516.38900,128.95345, 6.4426e-003, 1.3341e-005
 516.88900,129.11020, 6.4491e-003, 1.3059e-005
 517.38900,129.26678, 6.4556e-003, 1.3536e-005
 517.88900,129.42235, 6.4627e-003, 1.3828e-005
 518.38900,129.57802, 6.4688e-003, 1.2536e-005
 518.88900,129.73339, 6.4762e-003, 1.4070e-005
 519.38900,129.88864, 6.4825e-003, 1.3254e-005
 519.88900,130.04377, 6.4894e-003, 1.3463e-005
 520.38900,130.19921, 6.4964e-003, 1.3984e-005
 520.88900,130.35453, 6.5037e-003, 1.4237e-005
 521.38900,130.51035, 6.5101e-003, 1.4180e-005
 521.88900,130.66655, 6.5174e-003, 1.3242e-005
 522.38900,130.82355, 6.5240e-003, 1.4030e-005
 522.88900,130.98078, 6.5310e-003, 1.3639e-005
 523.38900,131.13862, 6.5383e-003, 1.3870e-005
 523.88900,131.29690, 6.5450e-003, 1.3609e-005
 524.38900,131.45562, 6.5524e-003, 1.4043e-005
 524.88900,131.61460, 6.5594e-003, 1.5201e-005
 525.38900,131.77376, 6.5665e-003, 1.4079e-005
 525.88900,131.93313, 6.5738e-003, 1.3956e-005
 526.38900,132.09271, 6.5806e-003, 1.4885e-005
 526.88900,132.25266, 6.5881e-003, 1.4095e-005
 527.38900,132.41274, 6.5953e-003, 1.3999e-005
 527.88900,132.57336, 6.6018e-003, 1.5003e-005
 528.38900,132.73415, 6.6092e-003, 1.4113e-005
 528.88900,132.89508, 6.6167e-003, 1.4639e-005
 529.38900,133.05639, 6.6238e-003, 1.3520e-005
 529.88900,133.21777, 6.6307e-003, 1.3860e-005
 530.38900,133.37919, 6.6382e-003, 1.4818e-005
 530.88900,133.54089, 6.6450e-003, 1.3403e-005
 531.38900,133.70246, 6.6523e-003, 1.3708e-005
 531.88900,133.86437, 6.6595e-003, 1.4779e-005
 532.38900,134.02655, 6.6661e-003, 1.4758e-005
 532.88900,134.18911, 6.6736e-003, 1.3372e-005
 533.38900,134.35203, 6.6810e-003, 1.4075e-005
 533.88900,134.51491, 6.6877e-003, 1.5402e-005
 534.38900,134.67821, 6.6954e-003, 1.4653e-005
 534.88900,134.84136, 6.7025e-003, 1.4483e-005
 535.38900,135.00454, 6.7099e-003, 1.4391e-005
 535.88900,135.16789, 6.7173e-003, 1.4111e-005
 536.38900,135.33198, 6.7237e-003, 1.3428e-005
 536.88900,135.49616, 6.7310e-003, 1.4189e-005
 537.38900,135.66176, 6.7380e-003, 1.3735e-005
 537.88900,135.82794, 6.7453e-003, 1.3177e-005
 538.38900,135.99376, 6.7520e-003, 1.5236e-005
 538.88900,136.15976, 6.7596e-003, 1.4559e-005
 539.38900,136.32558, 6.7672e-003, 1.4658e-005
 539.88900,136.49097, 6.7740e-003, 1.4015e-005
 540.38900,136.65690, 6.7810e-003, 1.3867e-005
 540.88900,136.82280, 6.7883e-003, 1.5452e-005
 541.38900,136.98847, 6.7957e-003, 1.3335e-005
 541.88900,137.15412, 6.8032e-003, 1.4600e-005
 542.38900,137.31981, 6.8098e-003, 1.3852e-005
 542.88900,137.48560, 6.8168e-003, 1.3875e-005
 543.38900,137.65167, 6.8240e-003, 1.5381e-005
 543.88900,137.81785, 6.8316e-003, 1.4348e-005
 544.38900,137.98403, 6.8389e-003, 1.5348e-005
 544.88900,138.15041, 6.8460e-003, 1.3459e-005
 545.38900,138.31680, 6.8530e-003, 1.4213e-005
 545.88900,138.48368, 6.8604e-003, 1.4582e-005
 546.38900,138.65088, 6.8676e-003, 1.3797e-005
 546.88900,138.81799, 6.8742e-003, 1.4900e-005
 547.38900,138.98534, 6.8818e-003, 1.4371e-005
 547.88900,139.15293, 6.8893e-003, 1.4453e-005
 548.38900,139.31994, 6.8965e-003, 1.4783e-005
 548.88900,139.48777, 6.9034e-003, 1.4850e-005
 549.38900,139.65583, 6.9112e-003, 1.4339e-005
 549.88900,139.82363, 6.9178e-003, 1.4829e-005
 550.38900,139.99189, 6.9253e-003, 1.3775e-005
 550.88900,140.16018, 6.9324e-003, 1.4876e-005
 551.38900,140.32869, 6.9395e-003, 1.4236e-005
 551.88900,140.49738, 6.9468e-003, 1.5013e-005
 552.38900,140.66629, 6.9539e-003, 1.4371e-005
 552.88900,140.83429, 6.9607e-003, 1.4439e-005
 553.38900,141.00212, 6.9683e-003, 1.3501e-005
 553.88900,141.16941, 6.9756e-003, 1.5211e-005
 554.38900,141.33752, 6.9825e-003, 1.3586e-005
 554.88900,141.50533, 6.9896e-003, 1.5008e-005
 555.38900,141.67328, 6.9969e-003, 1.4169e-005
 555.88900,141.84098, 7.0046e-003, 1.4205e-005
 556.38900,142.00874, 7.0115e-003, 1.4598e-005
 556.88900,142.17669, 7.0187e-003, 1.5339e-005
 557.38900,142.34497, 7.0262e-003, 1.5363e-005
 557.88900,142.51434, 7.0339e-003, 1.4632e-005
 558.38900,142.68321, 7.0414e-003, 1.6211e-005
 558.88900,142.85237, 7.0488e-003, 1.5291e-005
 559.38900,143.02214, 7.0564e-003, 1.5407e-005
 559.88900,143.19209, 7.0642e-003, 1.4674e-005
 560.38900,143.36283, 7.0715e-003, 1.6368e-005
 560.88900,143.53464, 7.0797e-003, 1.4987e-005
 561.38900,143.70696, 7.0872e-003, 1.5317e-005
 561.88900,143.87972, 7.0947e-003, 1.6082e-005
 562.38900,144.05313, 7.1029e-003, 1.5193e-005
 562.88900,144.22675, 7.1108e-003, 1.6656e-005
 563.38900,144.40145, 7.1186e-003, 1.5467e-005
 563.88900,144.57643, 7.1262e-003, 1.5054e-005
 564.38900,144.75136, 7.1342e-003, 1.5607e-005
 564.88900,144.92622, 7.1416e-003, 1.5063e-005
 565.38900,145.10038, 7.1488e-003, 1.4612e-005
 565.88900,145.27406, 7.1565e-003, 1.5720e-005
 566.38900,145.44705, 7.1631e-003, 1.4480e-005
 566.88900,145.61956, 7.1711e-003, 1.4204e-005
 567.38900,145.79084, 7.1782e-003, 1.3558e-005
 567.88900,145.96164, 7.1848e-003, 1.3471e-005
 568.38900,146.13167, 7.1912e-003, 1.2997e-005
 568.88900,146.30066, 7.1983e-003, 1.3742e-005
 569.38900,146.46872, 7.2048e-003, 1.3423e-005
 569.88900,146.63588, 7.2116e-003, 1.4372e-005
 570.38900,146.80245, 7.2187e-003, 1.3009e-005
 570.88900,146.96811, 7.2251e-003, 1.2964e-005
 571.38900,147.13343, 7.2321e-003, 1.4303e-005
 571.88900,147.29849, 7.2388e-003, 1.3171e-005
 572.38900,147.46249, 7.2455e-003, 1.3685e-005
 572.88900,147.62607, 7.2521e-003, 1.3450e-005
 573.38900,147.78903, 7.2590e-003, 1.4350e-005
 573.88900,147.95126, 7.2662e-003, 1.3458e-005
 574.38900,148.11335, 7.2727e-003, 1.3781e-005
 574.88900,148.27584, 7.2796e-003, 1.4423e-005
 575.38900,148.43873, 7.2873e-003, 1.4313e-005
 575.88900,148.60226, 7.2938e-003, 1.3727e-005
 576.38900,148.76652, 7.3014e-003, 1.4740e-005
 576.88900,148.93123, 7.3082e-003, 1.4180e-005
 577.38900,149.09598, 7.3157e-003, 1.4569e-005
 577.88900,149.26124, 7.3227e-003, 1.4343e-005
 578.38900,149.42663, 7.3302e-003, 1.4197e-005
 578.88900,149.59258, 7.3368e-003, 1.3866e-005
 579.38900,149.75888, 7.3446e-003, 1.6220e-005
 579.88900,149.92555, 7.3517e-003, 1.3161e-005
 580.38900,150.09221, 7.3588e-003, 1.5301e-005
 580.88900,150.25911, 7.3662e-003, 1.3491e-005
 581.38900,150.42662, 7.3735e-003, 1.5043e-005
 581.88900,150.59421, 7.3805e-003, 1.4157e-005
 582.38900,150.76235, 7.3879e-003, 1.4341e-005
 582.88900,150.93095, 7.3949e-003, 1.4782e-005
 583.38900,151.09959, 7.4024e-003, 1.5076e-005
 583.88900,151.26839, 7.4095e-003, 1.4045e-005
 584.38900,151.43783, 7.4166e-003, 1.4325e-005
 584.88900,151.60739, 7.4241e-003, 1.4759e-005
 585.38900,151.77679, 7.4311e-003, 1.3960e-005
 585.88900,151.94654, 7.4382e-003, 1.4028e-005
 586.38900,152.11650, 7.4453e-003, 1.4701e-005
 586.88900,152.28650, 7.4528e-003, 1.5094e-005
 587.38900,152.45694, 7.4602e-003, 1.4005e-005
 587.88900,152.62748, 7.4672e-003, 1.5076e-005
 588.38900,152.79797, 7.4748e-003, 1.4677e-005
 588.88900,152.96817, 7.4821e-003, 1.4889e-005
 589.38900,153.13840, 7.4896e-003, 1.4069e-005
 589.88900,153.30883, 7.4964e-003, 1.4519e-005
 590.38900,153.47931, 7.5039e-003, 1.4700e-005
 590.88900,153.64992, 7.5114e-003, 1.4092e-005
 591.38900,153.82112, 7.5188e-003, 1.4472e-005
 591.88900,153.99211, 7.5258e-003, 1.4658e-005
 592.38900,154.16356, 7.5331e-003, 1.5242e-005
 592.88900,154.33544, 7.5409e-003, 1.3608e-005
 593.38900,154.50739, 7.5483e-003, 1.5584e-005
 593.88900,154.67978, 7.5555e-003, 1.4146e-005
 594.38900,154.85211, 7.5628e-003, 1.4872e-005
 594.88900,155.02492, 7.5703e-003, 1.4207e-005
 595.38900,155.19769, 7.5774e-003, 1.3950e-005
 595.88900,155.37115, 7.5846e-003, 1.4964e-005
 596.38900,155.54525, 7.5923e-003, 1.5869e-005
 596.88900,155.71918, 7.5991e-003, 1.4206e-005
 597.38900,155.89329, 7.6069e-003, 1.4638e-005
 597.88900,156.06693, 7.6143e-003, 1.4234e-005
 598.38900,156.24003, 7.6220e-003, 1.5279e-005
 598.88900,156.41332, 7.6292e-003, 1.4092e-005
 599.38900,156.58711, 7.6368e-003, 1.4828e-005
 599.88900,156.76172, 7.6439e-003, 1.4940e-005
 600.38900,156.93730, 7.6516e-003, 1.5497e-005
 600.88900,157.11279, 7.6590e-003, 1.4693e-005
 601.38900,157.28800, 7.6661e-003, 1.4981e-005
 601.88900,157.46284, 7.6739e-003, 1.4276e-005
 602.38900,157.63734, 7.6808e-003, 1.4754e-005
 602.88900,157.81182, 7.6883e-003, 1.4879e-005
 603.38900,157.98641, 7.6957e-003, 1.4561e-005
 603.88900,158.16140, 7.7032e-003, 1.4794e-005
 604.38900,158.33606, 7.7104e-003, 1.5985e-005
 604.88900,158.51086, 7.7178e-003, 1.3567e-005
 605.38900,158.68582, 7.7253e-003, 1.5567e-005
 605.88900,158.86045, 7.7323e-003, 1.4733e-005
 606.38900,159.03534, 7.7401e-003, 1.5036e-005
 606.88900,159.21073, 7.7474e-003, 1.3979e-005
 607.38900,159.38616, 7.7546e-003, 1.4469e-005
 607.88900,159.56204, 7.7623e-003, 1.4793e-005
 608.38900,159.73798, 7.7693e-003, 1.5429e-005
 608.88900,159.91358, 7.7771e-003, 1.5540e-005
 609.38900,160.08954, 7.7849e-003, 1.4170e-005
 609.88900,160.26485, 7.7919e-003, 1.5520e-005
 610.38900,160.44043, 7.7994e-003, 1.4502e-005
 610.88900,160.61643, 7.8069e-003, 1.4307e-005
 611.38900,160.79210, 7.8140e-003, 1.4181e-005
 611.88900,160.96846, 7.8215e-003, 1.5649e-005
 612.38900,161.14482, 7.8288e-003, 1.4700e-005
 612.88900,161.32084, 7.8365e-003, 1.4842e-005
 613.38900,161.49724, 7.8440e-003, 1.5470e-005
 613.88900,161.67357, 7.8513e-003, 1.5487e-005
 614.38900,161.84999, 7.8590e-003, 1.4407e-005
 614.88900,162.02663, 7.8667e-003, 1.5965e-005
 615.38900,162.20339, 7.8739e-003, 1.4066e-005
 615.88900,162.38035, 7.8811e-003, 1.5479e-005
 616.38900,162.55715, 7.8891e-003, 1.4193e-005
 616.88900,162.73357, 7.8964e-003, 1.5020e-005
 617.38900,162.90992, 7.9044e-003, 1.5705e-005
 617.88900,163.08639, 7.9117e-003, 1.5038e-005
 618.38900,163.26275, 7.9189e-003, 1.4063e-005
 618.88900,163.43912, 7.9265e-003, 1.5505e-005
 619.38900,163.61644, 7.9340e-003, 1.4949e-005
 619.88900,163.79395, 7.9413e-003, 1.5836e-005
 620.38900,163.97142, 7.9486e-003, 1.4624e-005
 620.88900,164.14932, 7.9565e-003, 1.4867e-005
 621.38900,164.32646, 7.9645e-003, 1.5163e-005
 621.88900,164.50324, 7.9718e-003, 1.5563e-005
 622.38900,164.68064, 7.9789e-003, 1.4738e-005
 622.88900,164.85875, 7.9864e-003, 1.4669e-005
 623.38900,165.03630, 7.9940e-003, 1.5446e-005
 623.88900,165.21341, 8.0013e-003, 1.4617e-005
 624.38900,165.39056, 8.0088e-003, 1.5169e-005
 624.88900,165.56696, 8.0166e-003, 1.5672e-005
 625.38900,165.74368, 8.0242e-003, 1.5632e-005
 625.88900,165.92113, 8.0316e-003, 1.4280e-005
 626.38900,166.09818, 8.0389e-003, 1.4138e-005
 626.88900,166.27522, 8.0464e-003, 1.5418e-005
 627.38900,166.45261, 8.0537e-003, 1.5436e-005
 627.88900,166.63027, 8.0617e-003, 1.5445e-005
 628.38900,166.80790, 8.0694e-003, 1.5407e-005
 628.88900,166.98551, 8.0766e-003, 1.4696e-005
 629.38900,167.16275, 8.0841e-003, 1.4662e-005
 629.88900,167.34020, 8.0919e-003, 1.4710e-005
 630.38900,167.51771, 8.0994e-003, 1.4734e-005
 630.88900,167.69531, 8.1069e-003, 1.5002e-005
 631.38900,167.87332, 8.1148e-003, 1.5264e-005
 631.88900,168.05192, 8.1225e-003, 1.5121e-005
 632.38900,168.23097, 8.1297e-003, 1.5644e-005
 632.88900,168.40958, 8.1371e-003, 1.5422e-005
 633.38900,168.58842, 8.1454e-003, 1.5676e-005
 633.88900,168.76641, 8.1529e-003, 1.4737e-005
 634.38900,168.94394, 8.1603e-003, 1.4747e-005
 634.88900,169.12220, 8.1679e-003, 1.4818e-005
 635.38900,169.30040, 8.1752e-003, 1.4501e-005
 635.88900,169.47781, 8.1826e-003, 1.4480e-005
 636.38900,169.65551, 8.1902e-003, 1.5959e-005
 636.88900,169.83344, 8.1983e-003, 1.5294e-005
 637.38900,170.01150, 8.2056e-003, 1.4532e-005
 637.88900,170.19051, 8.2132e-003, 1.5291e-005
 638.38900,170.36962, 8.2209e-003, 1.5597e-005
 638.88900,170.54887, 8.2288e-003, 1.5755e-005
 639.38900,170.72882, 8.2362e-003, 1.5395e-005
 639.88900,170.90894, 8.2443e-003, 1.5337e-005
 640.38900,171.08916, 8.2518e-003, 1.5017e-005
 640.88900,171.26975, 8.2591e-003, 1.5310e-005
 641.38900,171.44944, 8.2669e-003, 1.5464e-005
 641.88900,171.62860, 8.2745e-003, 1.5495e-005
 642.38900,171.80770, 8.2821e-003, 1.5271e-005
 642.88900,171.98636, 8.2900e-003, 1.5136e-005
 643.38900,172.16546, 8.2976e-003, 1.4543e-005
 643.88900,172.34490, 8.3048e-003, 1.5361e-005
 644.38900,172.52475, 8.3129e-003, 1.5647e-005
 644.88900,172.70459, 8.3205e-003, 1.6028e-005
 645.38900,172.88449, 8.3280e-003, 1.4764e-005
 645.88900,173.06482, 8.3357e-003, 1.6304e-005
 646.38900,173.24500, 8.3435e-003, 1.6121e-005
 646.88900,173.42523, 8.3515e-003, 1.5570e-005
 647.38900,173.60528, 8.3589e-003, 1.4897e-005
 647.88900,173.78467, 8.3664e-003, 1.5874e-005
 648.38900,173.96334, 8.3743e-003, 1.4874e-005
 648.88900,174.14208, 8.3815e-003, 1.5015e-005
 649.38900,174.32110, 8.3893e-003, 1.4680e-005
 649.88900,174.50059, 8.3972e-003, 1.5305e-005
 650.38900,174.68108, 8.4048e-003, 1.5176e-005
 650.88900,174.86172, 8.4123e-003, 1.6079e-005
 651.38900,175.04198, 8.4202e-003, 1.6261e-005
 651.88900,175.22339, 8.4280e-003, 1.5187e-005
 652.38900,175.40500, 8.4362e-003, 1.6258e-005
 652.88900,175.58696, 8.4444e-003, 1.6273e-005
 653.38900,175.76949, 8.4520e-003, 1.6189e-005
 653.88900,175.95207, 8.4605e-003, 1.6573e-005
 654.38900,176.13575, 8.4688e-003, 1.6812e-005
 654.88900,176.32073, 8.4771e-003, 1.5888e-005
 655.38900,176.50641, 8.4848e-003, 1.6361e-005
 655.88900,176.69268, 8.4932e-003, 1.6255e-005
 656.38900,176.87903, 8.5010e-003, 1.6450e-005
 656.88900,177.06592, 8.5094e-003, 1.6128e-005
 657.38900,177.25296, 8.5182e-003, 1.6056e-005
 657.88900,177.44022, 8.5259e-003, 1.4762e-005
 658.38900,177.62729, 8.5332e-003, 1.5208e-005
 658.88900,177.81356, 8.5408e-003, 1.5295e-005
 659.38900,177.99879, 8.5489e-003, 1.4947e-005
 659.88900,178.18258, 8.5564e-003, 1.5091e-005
 660.38900,178.36546, 8.5636e-003, 1.4242e-005
 660.88900,178.54718, 8.5709e-003, 1.4025e-005
 661.38900,178.72826, 8.5784e-003, 1.4388e-005
 661.88900,178.90800, 8.5856e-003, 1.4275e-005
 662.38900,179.08674, 8.5929e-003, 1.4510e-005
 662.88900,179.26458, 8.6004e-003, 1.5019e-005
 663.38900,179.44108, 8.6075e-003, 1.4156e-005
 663.88900,179.61753, 8.6142e-003, 1.3883e-005
 664.38900,179.79290, 8.6217e-003, 1.4404e-005
 664.88900,179.96825, 8.6291e-003, 1.4869e-005
 665.38900,180.14410, 8.6361e-003, 1.4988e-005
 665.88900,180.31950, 8.6434e-003, 1.3588e-005
 666.38900,180.49576, 8.6505e-003, 1.4890e-005
 666.88900,180.67226, 8.6584e-003, 1.5613e-005
 667.38900,180.84887, 8.6655e-003, 1.4042e-005
 667.88900,181.02584, 8.6732e-003, 1.5441e-005
 668.38900,181.20296, 8.6808e-003, 1.5691e-005
 668.88900,181.38020, 8.6882e-003, 1.4574e-005
 669.38900,181.55739, 8.6957e-003, 1.4737e-005
 669.88900,181.73414, 8.7029e-003, 1.5442e-005
 670.38900,181.91107, 8.7106e-003, 1.5059e-005
 670.88900,182.08830, 8.7181e-003, 1.4346e-005
 671.38900,182.26596, 8.7258e-003, 1.5602e-005
 671.88900,182.44442, 8.7333e-003, 1.4777e-005
 672.38900,182.62345, 8.7405e-003, 1.4065e-005
 672.88900,182.80285, 8.7483e-003, 1.4992e-005
 673.38900,182.98247, 8.7553e-003, 1.6480e-005
 673.88900,183.16329, 8.7632e-003, 1.4203e-005
 674.38900,183.34388, 8.7707e-003, 1.5386e-005
 674.88900,183.52479, 8.7782e-003, 1.4203e-005
 675.38900,183.70608, 8.7856e-003, 1.5828e-005
 675.88900,183.88691, 8.7928e-003, 1.5340e-005
 676.38900,184.06778, 8.8006e-003, 1.4828e-005
 676.88900,184.24854, 8.8082e-003, 1.5476e-005
 677.38900,184.42909, 8.8158e-003, 1.5121e-005
 677.88900,184.60997, 8.8235e-003, 1.4098e-005
 678.38900,184.79116, 8.8314e-003, 1.5332e-005
 678.88900,184.97290, 8.8385e-003, 1.5755e-005
 679.38900,185.15533, 8.8463e-003, 1.5199e-005
 679.88900,185.33815, 8.8538e-003, 1.4582e-005
 680.38900,185.52138, 8.8615e-003, 1.5501e-005
 680.88900,185.70501, 8.8688e-003, 1.4558e-005
 681.38900,185.88837, 8.8761e-003, 1.5249e-005
 681.88900,186.07142, 8.8841e-003, 1.5643e-005
 682.38900,186.25488, 8.8913e-003, 1.4698e-005
 682.88900,186.43810, 8.8987e-003, 1.5119e-005
 683.38900,186.62164, 8.9064e-003, 1.5437e-005
 683.88900,186.80546, 8.9142e-003, 1.5287e-005
 684.38900,186.98962, 8.9213e-003, 1.5186e-005
 684.88900,187.17371, 8.9288e-003, 1.5208e-005
 685.38900,187.35873, 8.9368e-003, 1.4303e-005
 685.88900,187.54408, 8.9441e-003, 1.4703e-005
 686.38900,187.72904, 8.9512e-003, 1.5730e-005
 686.88900,187.91437, 8.9588e-003, 1.5154e-005
 687.38900,188.09897, 8.9663e-003, 1.4255e-005
 687.88900,188.28366, 8.9736e-003, 1.5974e-005
 688.38900,188.46887, 8.9809e-003, 1.4477e-005
 688.88900,188.65364, 8.9884e-003, 1.4820e-005
 689.38900,188.83896, 8.9961e-003, 1.5531e-005
 689.88900,189.02396, 9.0031e-003, 1.4326e-005
 690.38900,189.20921, 9.0111e-003, 1.4654e-005
 690.88900,189.39471, 9.0180e-003, 1.5078e-005
 691.38900,189.57980, 9.0256e-003, 1.5595e-005
 691.88900,189.76577, 9.0336e-003, 1.4403e-005
 692.38900,189.95276, 9.0415e-003, 1.5963e-005
 692.88900,190.14026, 9.0485e-003, 1.4967e-005
 693.38900,190.32793, 9.0563e-003, 1.5047e-005
 693.88900,190.51466, 9.0639e-003, 1.5096e-005
 694.38900,190.70139, 9.0718e-003, 1.5055e-005
 694.88900,190.88884, 9.0793e-003, 1.5246e-005
 695.38900,191.07715, 9.0865e-003, 1.3580e-005
 695.88900,191.26629, 9.0937e-003, 1.3311e-005
 696.38900,191.45551, 9.1010e-003, 1.5880e-005
 696.88900,191.64445, 9.1087e-003, 1.5335e-005
 697.38900,191.83305, 9.1168e-003, 1.5724e-005
 697.88900,192.02136, 9.1239e-003, 1.5220e-005
 698.38900,192.20968, 9.1314e-003, 1.4337e-005
 698.88900,192.39866, 9.1395e-003, 1.5968e-005
 699.38900,192.58833, 9.1469e-003, 1.5537e-005
 699.88900,192.77855, 9.1542e-003, 1.5021e-005
 700.38900,192.96930, 9.1616e-003, 1.4347e-005
 700.88900,193.16013, 9.1692e-003, 1.5961e-005
 701.38900,193.35164, 9.1768e-003, 1.5708e-005
 701.88900,193.54299, 9.1846e-003, 1.4038e-005
 702.38900,193.73491, 9.1922e-003, 1.5055e-005
 702.88900,193.92717, 9.1994e-003, 1.6339e-005
 703.38900,194.11947, 9.2074e-003, 1.5158e-005
 703.88900,194.31167, 9.2148e-003, 1.4148e-005
 704.38900,194.50390, 9.2222e-003, 1.4907e-005
 704.88900,194.69554, 9.2291e-003, 1.4672e-005
 705.38900,194.88694, 9.2366e-003, 1.4506e-005
 705.88900,195.07817, 9.2444e-003, 1.4354e-005
 706.38900,195.26917, 9.2518e-003, 1.5121e-005
 706.88900,195.45974, 9.2590e-003, 1.4665e-005
 707.38900,195.65039, 9.2664e-003, 1.4268e-005
 707.88900,195.84182, 9.2742e-003, 1.4405e-005
 708.38900,196.03312, 9.2814e-003, 1.5315e-005
 708.88900,196.22548, 9.2887e-003, 1.5195e-005
 709.38900,196.41782, 9.2962e-003, 1.4115e-005
 709.88900,196.60978, 9.3036e-003, 1.5698e-005
 710.38900,196.80202, 9.3110e-003, 1.4236e-005
 710.88900,196.99365, 9.3183e-003, 1.4255e-005
 711.38900,197.18483, 9.3259e-003, 1.4614e-005
 711.88900,197.37690, 9.3328e-003, 1.5477e-005
 712.38900,197.56911, 9.3401e-003, 1.4015e-005
 712.88900,197.76150, 9.3476e-003, 1.4290e-005
 713.38900,197.95388, 9.3548e-003, 1.5477e-005
 713.88900,198.14597, 9.3621e-003, 1.3937e-005
 714.38900,198.33791, 9.3699e-003, 1.4569e-005
 714.88900,198.52943, 9.3772e-003, 1.3867e-005
 715.38900,198.72045, 9.3847e-003, 1.4411e-005
 715.88900,198.91228, 9.3923e-003, 1.4426e-005
 716.38900,199.10443, 9.3993e-003, 1.4997e-005
 716.88900,199.29668, 9.4059e-003, 1.4439e-005
 717.38900,199.48871, 9.4136e-003, 1.3725e-005
 717.88900,199.68053, 9.4213e-003, 1.4362e-005
 718.38900,199.87151, 9.4285e-003, 1.4914e-005
 718.88900,200.06285, 9.4361e-003, 1.4816e-005
 719.38900,200.25351, 9.4432e-003, 1.3817e-005
 719.88900,200.44471, 9.4503e-003, 1.4884e-005
 720.38900,200.63563, 9.4575e-003, 1.4602e-005
 720.88900,200.82678, 9.4645e-003, 1.4381e-005
 721.38900,201.01774, 9.4725e-003, 1.4970e-005
 721.88900,201.20915, 9.4793e-003, 1.5480e-005
 722.38900,201.40140, 9.4869e-003, 1.4801e-005
 722.88900,201.59359, 9.4945e-003, 1.5974e-005
 723.38900,201.78476, 9.5013e-003, 1.3537e-005
 723.88900,201.97550, 9.5092e-003, 1.5154e-005
 724.38900,202.16583, 9.5162e-003, 1.4149e-005
 724.88900,202.35614, 9.5235e-003, 1.4234e-005
 725.38900,202.54704, 9.5310e-003, 1.4619e-005
 725.88900,202.73740, 9.5381e-003, 1.4941e-005
 726.38900,202.92695, 9.5448e-003, 1.4583e-005
 726.88900,203.11644, 9.5533e-003, 1.4176e-005
 727.38900,203.30633, 9.5600e-003, 1.5199e-005
 727.88900,203.49681, 9.5676e-003, 1.5825e-005
 728.38900,203.68843, 9.5753e-003, 1.6253e-005
 728.88900,203.88083, 9.5832e-003, 1.5086e-005
 729.38900,204.07331, 9.5909e-003, 1.5334e-005
 729.88900,204.26668, 9.5987e-003, 1.5278e-005
 730.38900,204.46110, 9.6065e-003, 1.5700e-005
 730.88900,204.65727, 9.6144e-003, 1.6612e-005
 731.38900,204.85494, 9.6225e-003, 1.4840e-005
 731.88900,205.05348, 9.6302e-003, 1.6308e-005
 732.38900,205.25313, 9.6385e-003, 1.5368e-005
 732.88900,205.45289, 9.6463e-003, 1.4775e-005
 733.38900,205.65333, 9.6538e-003, 1.5181e-005
 733.88900,205.85351, 9.6617e-003, 1.5206e-005
 734.38900,206.05248, 9.6689e-003, 1.4535e-005
 734.88900,206.25067, 9.6763e-003, 1.4065e-005
 735.38900,206.44729, 9.6841e-003, 1.4725e-005
 735.88900,206.64211, 9.6907e-003, 1.3685e-005
 736.38900,206.83591, 9.6978e-003, 1.3693e-005
 736.88900,207.02776, 9.7046e-003, 1.3090e-005
 737.38900,207.21805, 9.7114e-003, 1.3292e-005
 737.88900,207.40735, 9.7182e-003, 1.4062e-005
 738.38900,207.59520, 9.7254e-003, 1.3654e-005
 738.88900,207.78223, 9.7325e-003, 1.3279e-005
 739.38900,207.96892, 9.7396e-003, 1.3439e-005
 739.88900,208.15449, 9.7468e-003, 1.4561e-005
 740.38900,208.34000, 9.7539e-003, 1.3759e-005
 740.88900,208.52535, 9.7605e-003, 1.4942e-005
 741.38900,208.71080, 9.7676e-003, 1.3504e-005
 741.88900,208.89669, 9.7750e-003, 1.4921e-005
 742.38900,209.08256, 9.7821e-003, 1.3871e-005
 742.88900,209.26835, 9.7891e-003, 1.5480e-005
 743.38900,209.45421, 9.7961e-003, 1.4446e-005
 743.88900,209.64032, 9.8036e-003, 1.4622e-005
 744.38900,209.82657, 9.8109e-003, 1.4194e-005
 744.88900,210.01331, 9.8180e-003, 1.3984e-005
 745.38900,210.20043, 9.8255e-003, 1.3622e-005
 745.88900,210.38798, 9.8327e-003, 1.5607e-005
 746.38900,210.57626, 9.8403e-003, 1.4895e-005
 746.88900,210.76547, 9.8473e-003, 1.6136e-005
 747.38900,210.95480, 9.8557e-003, 1.4893e-005
 747.88900,211.14438, 9.8627e-003, 1.4964e-005
 748.38900,211.33500, 9.8706e-003, 1.4563e-005
 748.88900,211.52645, 9.8780e-003, 1.5012e-005
 749.38900,211.71953, 9.8858e-003, 1.6329e-005
 749.88900,211.91449, 9.8942e-003, 1.5434e-005
 750.38900,212.11084, 9.9018e-003, 1.5814e-005
 750.88900,212.30670, 9.9101e-003, 1.5728e-005
 751.38900,212.50208, 9.9175e-003, 1.6650e-005
 751.88900,212.69772, 9.9254e-003, 1.5704e-005
 752.38900,212.89438, 9.9332e-003, 1.5050e-005
 752.88900,213.09240, 9.9406e-003, 1.4931e-005
 753.38900,213.29052, 9.9484e-003, 1.4994e-005
 753.88900,213.48761, 9.9554e-003, 1.4972e-005
 754.38900,213.68341, 9.9627e-003, 1.2805e-005
 754.88900,213.87736, 9.9698e-003, 1.4352e-005
 755.38900,214.07020, 9.9770e-003, 1.4237e-005
 755.88900,214.26141, 9.9841e-003, 1.4414e-005
 756.38900,214.45125, 9.9912e-003, 1.4125e-005
 756.88900,214.64036, 9.9980e-003, 1.3525e-005
 757.38900,214.82872, 1.0005e-002, 1.4302e-005
 757.88900,215.01599, 1.0012e-002, 1.3557e-005
 758.38900,215.20270, 1.0019e-002, 1.4639e-005
 758.88900,215.38834, 1.0026e-002, 1.3373e-005
 759.38900,215.57377, 1.0033e-002, 1.4029e-005
 759.88900,215.75934, 1.0040e-002, 1.4654e-005
 760.38900,215.94491, 1.0047e-002, 1.3437e-005
 760.88900,216.13066, 1.0054e-002, 1.5412e-005
 761.38900,216.31629, 1.0061e-002, 1.4717e-005
 761.88900,216.50159, 1.0068e-002, 1.4076e-005
 762.38900,216.68715, 1.0075e-002, 1.3575e-005
 762.88900,216.87262, 1.0083e-002, 1.5139e-005
 763.38900,217.05878, 1.0090e-002, 1.4071e-005
 763.88900,217.24513, 1.0097e-002, 1.4708e-005
 764.38900,217.43168, 1.0104e-002, 1.4177e-005
 764.88900,217.61874, 1.0111e-002, 1.5262e-005
 765.38900,217.80546, 1.0119e-002, 1.3980e-005
 765.88900,217.99268, 1.0126e-002, 1.4973e-005
 766.38900,218.18043, 1.0133e-002, 1.4592e-005
 766.88900,218.36856, 1.0140e-002, 1.4912e-005
 767.38900,218.55762, 1.0148e-002, 1.4346e-005
 767.88900,218.74693, 1.0155e-002, 1.4706e-005
 768.38900,218.93641, 1.0162e-002, 1.4758e-005
 768.88900,219.12612, 1.0170e-002, 1.4937e-005
 769.38900,219.31596, 1.0177e-002, 1.3847e-005
 769.88900,219.50592, 1.0185e-002, 1.5991e-005
 770.38900,219.69619, 1.0191e-002, 1.4155e-005
 770.88900,219.88649, 1.0199e-002, 1.4850e-005
 771.38900,220.07684, 1.0206e-002, 1.4522e-005
 771.88900,220.26743, 1.0213e-002, 1.4234e-005
 772.38900,220.45788, 1.0221e-002, 1.5291e-005
 772.88900,220.64847, 1.0228e-002, 1.3958e-005
 773.38900,220.83942, 1.0235e-002, 1.5187e-005
 773.88900,221.03051, 1.0243e-002, 1.5046e-005
 774.38900,221.22242, 1.0250e-002, 1.4495e-005
 774.88900,221.41438, 1.0257e-002, 1.4189e-005
 775.38900,221.60605, 1.0264e-002, 1.3994e-005
 775.88900,221.79786, 1.0272e-002, 1.5759e-005
 776.38900,221.98981, 1.0279e-002, 1.4270e-005
 776.88900,222.18294, 1.0287e-002, 1.3953e-005
 777.38900,222.37641, 1.0294e-002, 1.5586e-005
 777.88900,222.56906, 1.0301e-002, 1.3940e-005
 778.38900,222.76146, 1.0309e-002, 1.4375e-005
 778.88900,222.95337, 1.0316e-002, 1.5225e-005
 779.38900,223.14565, 1.0323e-002, 1.3974e-005
 779.88900,223.33867, 1.0330e-002, 1.5529e-005
 780.38900,223.53201, 1.0338e-002, 1.4318e-005
 780.88900,223.72550, 1.0345e-002, 1.4004e-005
 781.38900,223.91935, 1.0353e-002, 1.3861e-005
 781.88900,224.11359, 1.0360e-002, 1.5634e-005
 782.38900,224.30803, 1.0367e-002, 1.5767e-005
 782.88900,224.50287, 1.0375e-002, 1.4136e-005
 783.38900,224.69784, 1.0382e-002, 1.3360e-005
 783.88900,224.89331, 1.0389e-002, 1.4976e-005
 784.38900,225.08872, 1.0396e-002, 1.5140e-005
 784.88900,225.28412, 1.0403e-002, 1.3528e-005
 785.38900,225.47915, 1.0411e-002, 1.4627e-005
 785.88900,225.67399, 1.0419e-002, 1.4370e-005
 786.38900,225.86899, 1.0426e-002, 1.4777e-005
 786.88900,226.06442, 1.0433e-002, 1.5931e-005
 787.38900,226.25906, 1.0440e-002, 1.5407e-005
 787.88900,226.45385, 1.0448e-002, 1.4420e-005
 788.38900,226.64867, 1.0456e-002, 1.5739e-005
 788.88900,226.84436, 1.0463e-002, 1.3591e-005
 789.38900,227.04098, 1.0470e-002, 1.4794e-005
 789.88900,227.23761, 1.0477e-002, 1.5295e-005
 790.38900,227.43440, 1.0485e-002, 1.6488e-005
 790.88900,227.63143, 1.0492e-002, 1.4398e-005
 791.38900,227.82857, 1.0500e-002, 1.4661e-005
 791.88900,228.02523, 1.0507e-002, 1.4408e-005
 792.38900,228.22277, 1.0515e-002, 1.5138e-005
 792.88900,228.42170, 1.0522e-002, 1.4904e-005
 793.38900,228.62307, 1.0530e-002, 1.4672e-005
 793.88900,228.82686, 1.0538e-002, 1.5488e-005
 794.38900,229.03208, 1.0545e-002, 1.4778e-005
 794.88900,229.23852, 1.0553e-002, 1.5189e-005
 795.38900,229.44581, 1.0561e-002, 1.5255e-005
 795.88900,229.65295, 1.0568e-002, 1.5515e-005
 796.38900,229.85995, 1.0576e-002, 1.4514e-005
 796.88900,230.06716, 1.0583e-002, 1.5964e-005
 797.38900,230.27513, 1.0591e-002, 1.4571e-005
 797.88900,230.48403, 1.0599e-002, 1.6171e-005
 798.38900,230.69460, 1.0607e-002, 1.6645e-005
 798.88900,230.90626, 1.0615e-002, 1.5174e-005
 799.38900,231.12034, 1.0623e-002, 1.7410e-005
 799.88900,231.33694, 1.0632e-002, 1.6601e-005
 800.38900,231.55590, 1.0640e-002, 1.5541e-005
 800.88900,231.77859, 1.0648e-002, 1.7113e-005
 801.38900,232.00487, 1.0656e-002, 1.7239e-005
 801.88900,232.23605, 1.0665e-002, 1.6918e-005
 802.38900,232.47049, 1.0673e-002, 1.8590e-005
 802.88900,232.70596, 1.0683e-002, 1.5999e-005
 803.38900,232.93945, 1.0691e-002, 1.6958e-005
 803.88900,233.16862, 1.0699e-002, 1.5158e-005
 804.38900,233.39324, 1.0707e-002, 1.4157e-005
 804.88900,233.61295, 1.0714e-002, 1.5027e-005
 805.38900,233.82975, 1.0721e-002, 1.4024e-005
 805.88900,234.04428, 1.0729e-002, 1.5313e-005
 806.38900,234.25777, 1.0737e-002, 1.4381e-005
 806.88900,234.47072, 1.0744e-002, 1.4996e-005
 807.38900,234.68334, 1.0752e-002, 1.5543e-005
 807.88900,234.89636, 1.0758e-002, 1.3888e-005
 808.38900,235.10995, 1.0766e-002, 1.4985e-005
 808.88900,235.32450, 1.0774e-002, 1.4058e-005
 809.38900,235.53965, 1.0781e-002, 1.5617e-005
 809.88900,235.75539, 1.0789e-002, 1.5023e-005
 810.38900,235.97217, 1.0796e-002, 1.4518e-005
 810.88900,236.19041, 1.0804e-002, 1.6125e-005
 811.38900,236.40805, 1.0811e-002, 1.4916e-005
 811.88900,236.62449, 1.0818e-002, 1.4285e-005
 812.38900,236.83654, 1.0827e-002, 1.5160e-005
 812.88900,237.04644, 1.0833e-002, 1.4441e-005
 813.38900,237.25490, 1.0841e-002, 1.4257e-005
 813.88900,237.46201, 1.0848e-002, 1.5198e-005
 814.38900,237.66931, 1.0856e-002, 1.4348e-005
 814.88900,237.87566, 1.0862e-002, 1.4811e-005
 815.38900,238.08200, 1.0870e-002, 1.3989e-005
 815.88900,238.28826, 1.0877e-002, 1.5117e-005
 816.38900,238.49430, 1.0885e-002, 1.5422e-005
 816.88900,238.69972, 1.0892e-002, 1.3845e-005
 817.38900,238.90507, 1.0899e-002, 1.4372e-005
 817.88900,239.10962, 1.0907e-002, 1.4875e-005
 818.38900,239.31271, 1.0914e-002, 1.3524e-005
 818.88900,239.51366, 1.0921e-002, 1.4288e-005
 819.38900,239.71298, 1.0928e-002, 1.3621e-005
 819.88900,239.91119, 1.0935e-002, 1.4413e-005
 820.38900,240.10958, 1.0942e-002, 1.5473e-005
 820.88900,240.30816, 1.0949e-002, 1.4008e-005
 821.38900,240.50668, 1.0956e-002, 1.4887e-005
 821.88900,240.70612, 1.0964e-002, 1.4967e-005
 822.38900,240.90606, 1.0971e-002, 1.4265e-005
 822.88900,241.10653, 1.0979e-002, 1.6911e-005
 823.38900,241.30744, 1.0986e-002, 1.5520e-005
 823.88900,241.50945, 1.0994e-002, 1.5202e-005
 824.38900,241.71202, 1.1001e-002, 1.4108e-005
 824.88900,241.91600, 1.1008e-002, 1.5127e-005
 825.38900,242.11968, 1.1016e-002, 1.3842e-005
 825.88900,242.32215, 1.1023e-002, 1.3885e-005
 826.38900,242.52377, 1.1030e-002, 1.3662e-005
 826.88900,242.72442, 1.1037e-002, 1.5789e-005
 827.38900,242.92492, 1.1044e-002, 1.4307e-005
 827.88900,243.12430, 1.1052e-002, 1.3948e-005
 828.38900,243.32339, 1.1059e-002, 1.4930e-005
 828.88900,243.52235, 1.1066e-002, 1.4204e-005
 829.38900,243.72150, 1.1073e-002, 1.4092e-005
 829.88900,243.92119, 1.1081e-002, 1.4681e-005
 830.38900,244.12087, 1.1088e-002, 1.4276e-005
 830.88900,244.32071, 1.1096e-002, 1.4742e-005
 831.38900,244.52064, 1.1103e-002, 1.4531e-005
 831.88900,244.72046, 1.1110e-002, 1.4594e-005
 832.38900,244.91993, 1.1117e-002, 1.4193e-005
 832.88900,245.11840, 1.1124e-002, 1.2743e-005
 833.38900,245.31631, 1.1131e-002, 1.4529e-005
 833.88900,245.51415, 1.1139e-002, 1.4395e-005
 834.38900,245.71149, 1.1147e-002, 1.4175e-005
 834.88900,245.90873, 1.1154e-002, 1.4688e-005
 835.38900,246.10558, 1.1160e-002, 1.4346e-005
 835.88900,246.30256, 1.1168e-002, 1.4506e-005
 836.38900,246.49968, 1.1175e-002, 1.5582e-005
 836.88900,246.69691, 1.1183e-002, 1.5384e-005
 837.38900,246.89375, 1.1190e-002, 1.5397e-005
 837.88900,247.09011, 1.1197e-002, 1.3945e-005
 838.38900,247.28579, 1.1205e-002, 1.5140e-005
 838.88900,247.48121, 1.1212e-002, 1.4453e-005
 839.38900,247.67706, 1.1219e-002, 1.4625e-005
 839.88900,247.87329, 1.1227e-002, 1.4079e-005
 840.38900,248.06920, 1.1234e-002, 1.4695e-005
 840.88900,248.26451, 1.1242e-002, 1.5889e-005
 841.38900,248.45853, 1.1249e-002, 1.5212e-005
 841.88900,248.65166, 1.1256e-002, 1.4276e-005
 842.38900,248.84470, 1.1264e-002, 1.5279e-005
 842.88900,249.03740, 1.1271e-002, 1.3631e-005
 843.38900,249.23076, 1.1278e-002, 1.5144e-005
 843.88900,249.42417, 1.1286e-002, 1.5756e-005
 844.38900,249.61806, 1.1293e-002, 1.5374e-005
 844.88900,249.81189, 1.1300e-002, 1.4240e-005
 845.38900,250.00616, 1.1308e-002, 1.3880e-005
 845.88900,250.20005, 1.1316e-002, 1.5042e-005
 846.38900,250.39386, 1.1323e-002, 1.5479e-005
 846.88900,250.58759, 1.1330e-002, 1.4192e-005
 847.38900,250.78129, 1.1338e-002, 1.5130e-005
 847.88900,250.97507, 1.1345e-002, 1.4064e-005
 848.38900,251.16776, 1.1353e-002, 1.6161e-005
 848.88900,251.36011, 1.1360e-002, 1.4147e-005
 849.38900,251.55139, 1.1368e-002, 1.4644e-005
 849.88900,251.74238, 1.1375e-002, 1.5274e-005
 850.38900,251.93393, 1.1383e-002, 1.6653e-005
 850.88900,252.12562, 1.1391e-002, 1.4458e-005
 851.38900,252.31843, 1.1399e-002, 1.5703e-005
 851.88900,252.51230, 1.1406e-002, 1.6018e-005
 852.38900,252.70699, 1.1414e-002, 1.6180e-005
 852.88900,252.90277, 1.1422e-002, 1.6559e-005
 853.38900,253.09936, 1.1430e-002, 1.5709e-005
 853.88900,253.29909, 1.1438e-002, 1.5913e-005
 854.38900,253.50160, 1.1446e-002, 1.6036e-005
 854.88900,253.70554, 1.1454e-002, 1.5638e-005
 855.38900,253.91177, 1.1463e-002, 1.6565e-005
 855.88900,254.11774, 1.1471e-002, 1.6409e-005
 856.38900,254.32464, 1.1480e-002, 1.5757e-005
 856.88900,254.53207, 1.1487e-002, 1.6461e-005
 857.38900,254.73849, 1.1495e-002, 1.5905e-005
 857.88900,254.94331, 1.1504e-002, 1.4957e-005
 858.38900,255.14585, 1.1511e-002, 1.5633e-005
 858.88900,255.34635, 1.1519e-002, 1.5166e-005
 859.38900,255.54457, 1.1526e-002, 1.5051e-005
 859.88900,255.74134, 1.1534e-002, 1.4737e-005
 860.38900,255.93688, 1.1541e-002, 1.3730e-005
 860.88900,256.13172, 1.1548e-002, 1.4849e-005
 861.38900,256.32600, 1.1556e-002, 1.4806e-005
 861.88900,256.52067, 1.1563e-002, 1.5317e-005
 862.38900,256.71575, 1.1571e-002, 1.4340e-005
 862.88900,256.91155, 1.1579e-002, 1.6598e-005
 863.38900,257.10793, 1.1586e-002, 1.5082e-005
 863.88900,257.30645, 1.1595e-002, 1.5509e-005
 864.38900,257.50669, 1.1602e-002, 1.5964e-005
 864.88900,257.71043, 1.1610e-002, 1.5855e-005
 865.38900,257.91625, 1.1619e-002, 1.6388e-005
 865.88900,258.12415, 1.1626e-002, 1.5975e-005
 866.38900,258.33192, 1.1634e-002, 1.6225e-005
 866.88900,258.54095, 1.1642e-002, 1.5034e-005
 867.38900,258.75089, 1.1650e-002, 1.5587e-005
 867.88900,258.96183, 1.1658e-002, 1.5685e-005
 868.38900,259.17279, 1.1665e-002, 1.4493e-005
 868.88900,259.38354, 1.1673e-002, 1.4740e-005
 869.38900,259.59356, 1.1681e-002, 1.5265e-005
 869.88900,259.80264, 1.1689e-002, 1.6045e-005
 870.38900,260.00768, 1.1696e-002, 1.4751e-005
 870.88900,260.20910, 1.1703e-002, 1.3957e-005
 871.38900,260.40839, 1.1710e-002, 1.4815e-005
 871.88900,260.60484, 1.1717e-002, 1.4841e-005
 872.38900,260.79954, 1.1725e-002, 1.4010e-005
 872.88900,260.99277, 1.1732e-002, 1.4730e-005
 873.38900,261.18533, 1.1740e-002, 1.5560e-005
 873.88900,261.37794, 1.1747e-002, 1.5146e-005
 874.38900,261.57141, 1.1755e-002, 1.5089e-005
 874.88900,261.76524, 1.1762e-002, 1.7375e-005
 875.38900,261.95941, 1.1771e-002, 1.4747e-005
 875.88900,262.15468, 1.1778e-002, 1.4834e-005
 876.38900,262.35058, 1.1786e-002, 1.5640e-005
 876.88900,262.54741, 1.1794e-002, 1.4294e-005
 877.38900,262.74448, 1.1802e-002, 1.6284e-005
 877.88900,262.94061, 1.1810e-002, 1.5212e-005
 878.38900,263.13727, 1.1817e-002, 1.5777e-005
 878.88900,263.33263, 1.1824e-002, 1.4934e-005
 879.38900,263.52961, 1.1832e-002, 1.4390e-005
 879.88900,263.72759, 1.1840e-002, 1.4679e-005
 880.38900,263.92599, 1.1847e-002, 1.5536e-005
 880.88900,264.12534, 1.1855e-002, 1.6286e-005
 881.38900,264.32333, 1.1864e-002, 1.4786e-005
 881.88900,264.52135, 1.1871e-002, 1.5042e-005
 882.38900,264.71782, 1.1878e-002, 1.5688e-005
 882.88900,264.91533, 1.1887e-002, 1.5228e-005
 883.38900,265.11320, 1.1894e-002, 1.5529e-005
 883.88900,265.31121, 1.1902e-002, 1.6122e-005
 884.38900,265.50977, 1.1910e-002, 1.4601e-005
 884.88900,265.70757, 1.1918e-002, 1.5278e-005
 885.38900,265.90542, 1.1925e-002, 1.6127e-005
 885.88900,266.10332, 1.1933e-002, 1.6339e-005
 886.38900,266.30256, 1.1941e-002, 1.5412e-005
 886.88900,266.50182, 1.1949e-002, 1.6141e-005
 887.38900,266.70237, 1.1956e-002, 1.5071e-005
 887.88900,266.90249, 1.1965e-002, 1.8435e-005
 888.38900,267.10291, 1.1973e-002, 1.4146e-005
 888.88900,267.30395, 1.1980e-002, 1.5786e-005
 889.38900,267.50478, 1.1988e-002, 1.5744e-005
 889.88900,267.70494, 1.1996e-002, 1.5683e-005
 890.38900,267.90536, 1.2003e-002, 1.6393e-005
 890.88900,268.10585, 1.2011e-002, 1.5024e-005
 891.38900,268.30580, 1.2019e-002, 1.5333e-005
 891.88900,268.50530, 1.2027e-002, 1.6116e-005
 892.38900,268.70368, 1.2035e-002, 1.5176e-005
 892.88900,268.90169, 1.2043e-002, 1.6562e-005
 893.38900,269.09976, 1.2051e-002, 1.5202e-005
 893.88900,269.29784, 1.2058e-002, 1.6032e-005
 894.38900,269.49579, 1.2066e-002, 1.5582e-005
 894.88900,269.69349, 1.2074e-002, 1.5176e-005
 895.38900,269.89097, 1.2082e-002, 1.5449e-005
 895.88900,270.08882, 1.2090e-002, 1.4210e-005
 896.38900,270.28693, 1.2097e-002, 1.4976e-005
 896.88900,270.48537, 1.2105e-002, 1.5300e-005
 897.38900,270.68403, 1.2113e-002, 1.5906e-005
 897.88900,270.88253, 1.2121e-002, 1.6285e-005
 898.38900,271.08226, 1.2129e-002, 1.5411e-005
 898.88900,271.28182, 1.2137e-002, 1.5926e-005
 899.38900,271.48125, 1.2146e-002, 1.5200e-005
 899.88900,271.68095, 1.2153e-002, 1.5365e-005
 900.38900,271.88147, 1.2161e-002, 1.5071e-005
 900.88900,272.08336, 1.2169e-002, 1.5737e-005
 901.38900,272.28549, 1.2177e-002, 1.5453e-005
 901.88900,272.48800, 1.2185e-002, 1.6485e-005
 902.38900,272.68920, 1.2193e-002, 1.5715e-005
 902.88900,272.89139, 1.2201e-002, 1.7086e-005
 903.38900,273.09448, 1.2209e-002, 1.6795e-005
 903.88900,273.29967, 1.2218e-002, 1.6984e-005
 904.38900,273.50768, 1.2226e-002, 1.7322e-005
 904.88900,273.71747, 1.2235e-002, 1.6711e-005
 905.38900,273.92897, 1.2243e-002, 1.9065e-005
 905.88900,274.14135, 1.2253e-002, 1.6138e-005
 906.38900,274.35423, 1.2261e-002, 1.6919e-005
 906.88900,274.56780, 1.2269e-002, 1.5949e-005
 907.38900,274.78208, 1.2278e-002, 1.7606e-005
 907.88900,274.99855, 1.2287e-002, 1.7080e-005
 908.38900,275.21681, 1.2295e-002, 1.7107e-005
 908.88900,275.43698, 1.2304e-002, 1.6643e-005
 909.38900,275.65766, 1.2312e-002, 1.4260e-005
 909.88900,275.87799, 1.2320e-002, 1.6634e-005
 910.38900,276.10039, 1.2328e-002, 1.6302e-005
 910.88900,276.32470, 1.2337e-002, 1.7218e-005
 911.38900,276.55211, 1.2345e-002, 1.7531e-005
 911.88900,276.78365, 1.2354e-002, 1.7967e-005
 912.38900,277.02148, 1.2363e-002, 1.5902e-005
 912.88900,277.26820, 1.2372e-002, 1.7812e-005
 913.38900,277.52887, 1.2382e-002, 1.9311e-005
 913.88900,277.81020, 1.2392e-002, 2.0710e-005
 914.38900,278.11525, 1.2403e-002, 2.1605e-005
 914.88900,278.43458, 1.2413e-002, 1.7056e-005
 915.38900,278.74158, 1.2421e-002, 1.2778e-005
 915.88900,279.01583, 1.2427e-002, 1.1802e-005
 916.38900,279.26002, 1.2433e-002, 1.0847e-005
 916.88900,279.48217, 1.2439e-002, 1.1549e-005
 917.38900,279.69059, 1.2445e-002, 1.1746e-005
 917.88900,279.88786, 1.2451e-002, 1.2472e-005
 918.38900,280.07935, 1.2457e-002, 1.3014e-005
 918.88900,280.26701, 1.2465e-002, 1.4430e-005
 919.38900,280.45274, 1.2472e-002, 1.4603e-005
 919.88900,280.63889, 1.2480e-002, 1.4950e-005
 920.38900,280.82487, 1.2487e-002, 1.4505e-005
 920.88900,281.01090, 1.2495e-002, 1.4750e-005
 921.38900,281.19717, 1.2502e-002, 1.4856e-005
 921.88900,281.38249, 1.2510e-002, 1.5400e-005
 922.38900,281.56644, 1.2518e-002, 1.5498e-005
 922.88900,281.75102, 1.2525e-002, 1.4708e-005
 923.38900,281.93525, 1.2533e-002, 1.6391e-005
 923.88900,282.11946, 1.2541e-002, 1.5404e-005
 924.38900,282.30424, 1.2549e-002, 1.5058e-005
 924.88900,282.48865, 1.2556e-002, 1.5354e-005
 925.38900,282.67453, 1.2564e-002, 1.5571e-005
 925.88900,282.86222, 1.2572e-002, 1.5418e-005
 926.38900,283.05219, 1.2580e-002, 1.6017e-005
 926.88900,283.24349, 1.2588e-002, 1.5528e-005
 927.38900,283.43524, 1.2596e-002, 1.5322e-005
 927.88900,283.62798, 1.2604e-002, 1.5477e-005
 928.38900,283.81910, 1.2612e-002, 1.5301e-005
 928.88900,284.01130, 1.2620e-002, 1.5072e-005
 929.38900,284.20375, 1.2627e-002, 1.5821e-005
 929.88900,284.39734, 1.2635e-002, 1.5436e-005
 930.38900,284.59230, 1.2643e-002, 1.6236e-005
 930.88900,284.78635, 1.2651e-002, 1.6355e-005
 931.38900,284.98095, 1.2659e-002, 1.5504e-005
 931.88900,285.17462, 1.2667e-002, 1.5533e-005
 932.38900,285.36773, 1.2675e-002, 1.5350e-005
 932.88900,285.56091, 1.2683e-002, 1.7188e-005
 933.38900,285.75466, 1.2691e-002, 1.5156e-005
 933.88900,285.94889, 1.2699e-002, 1.5388e-005
 934.38900,286.14420, 1.2707e-002, 1.5911e-005
 934.88900,286.33987, 1.2715e-002, 1.6491e-005
 935.38900,286.53516, 1.2723e-002, 1.5669e-005
 935.88900,286.73085, 1.2731e-002, 1.5284e-005
 936.38900,286.92576, 1.2739e-002, 1.5531e-005
 936.88900,287.12097, 1.2746e-002, 1.5352e-005
 937.38900,287.31590, 1.2754e-002, 1.5721e-005
 937.88900,287.50936, 1.2762e-002, 1.4347e-005
 938.38900,287.70304, 1.2770e-002, 1.5056e-005
 938.88900,287.89506, 1.2777e-002, 1.5250e-005
 939.38900,288.08689, 1.2786e-002, 1.4554e-005
 939.88900,288.27845, 1.2793e-002, 1.6971e-005
 940.38900,288.46960, 1.2801e-002, 1.5731e-005
 940.88900,288.65832, 1.2809e-002, 1.6028e-005
 941.38900,288.84574, 1.2817e-002, 1.4232e-005
 941.88900,289.03142, 1.2824e-002, 1.4976e-005
 942.38900,289.21617, 1.2831e-002, 1.5279e-005
 942.88900,289.40268, 1.2839e-002, 1.6036e-005
 943.38900,289.58908, 1.2847e-002, 1.6823e-005
 943.88900,289.77638, 1.2855e-002, 1.5514e-005
 944.38900,289.96499, 1.2864e-002, 1.6644e-005
 944.88900,290.15288, 1.2871e-002, 1.5432e-005
 945.38900,290.34079, 1.2879e-002, 1.5789e-005
 945.88900,290.52786, 1.2887e-002, 1.6017e-005
 946.38900,290.71382, 1.2895e-002, 1.5809e-005
 946.88900,290.90029, 1.2903e-002, 1.6662e-005
 947.38900,291.08723, 1.2911e-002, 1.6014e-005
 947.88900,291.27639, 1.2919e-002, 1.6345e-005
 948.38900,291.46741, 1.2927e-002, 1.7511e-005
 948.88900,291.65913, 1.2936e-002, 1.6655e-005
 949.38900,291.84856, 1.2945e-002, 1.5103e-005
 949.88900,292.03388, 1.2952e-002, 1.3857e-005
 950.38900,292.21502, 1.2959e-002, 1.4638e-005
 950.88900,292.39339, 1.2966e-002, 1.4475e-005
 951.38900,292.57164, 1.2974e-002, 1.6781e-005
 951.88900,292.75137, 1.2982e-002, 1.7146e-005
 952.38900,292.93449, 1.2991e-002, 1.7115e-005
 952.88900,293.12166, 1.3000e-002, 1.7719e-005
 953.38900,293.31208, 1.3009e-002, 1.8773e-005
 953.88900,293.50586, 1.3018e-002, 1.7392e-005
 954.38900,293.70074, 1.3026e-002, 1.6976e-005
 954.88900,293.89546, 1.3035e-002, 1.6731e-005
 955.38900,294.09041, 1.3043e-002, 1.7025e-005
 955.88900,294.28553, 1.3052e-002, 1.6894e-005
 956.38900,294.48108, 1.3060e-002, 1.7883e-005
 956.88900,294.67727, 1.3068e-002, 1.7298e-005
 957.38900,294.87259, 1.3077e-002, 1.6245e-005
 957.88900,295.06626, 1.3085e-002, 1.6575e-005
 958.38900,295.25942, 1.3093e-002, 1.7187e-005
 958.88900,295.45152, 1.3101e-002, 1.6405e-005
 959.38900,295.64367, 1.3110e-002, 1.6404e-005
 959.88900,295.83533, 1.3118e-002, 1.5482e-005
 960.38900,296.02612, 1.3126e-002, 1.5949e-005
 960.88900,296.21601, 1.3134e-002, 1.5294e-005
 961.38900,296.40558, 1.3141e-002, 1.6752e-005
 961.88900,296.59540, 1.3150e-002, 1.6396e-005
 962.38900,296.78495, 1.3158e-002, 1.6522e-005
 962.88900,296.97284, 1.3166e-002, 1.5673e-005
 963.38900,297.15867, 1.3173e-002, 1.5901e-005
 963.88900,297.34100, 1.3182e-002, 1.5669e-005
 964.38900,297.52088, 1.3190e-002, 1.4997e-005
 964.88900,297.69945, 1.3197e-002, 1.4608e-005
 965.38900,297.87652, 1.3205e-002, 1.5634e-005
 965.88900,298.05319, 1.3212e-002, 1.5793e-005
 966.38900,298.22998, 1.3221e-002, 1.5662e-005
 966.88900,298.40708, 1.3228e-002, 1.7211e-005
 967.38900,298.58620, 1.3237e-002, 1.6332e-005
 967.88900,298.76795, 1.3245e-002, 1.6275e-005
 968.38900,298.95247, 1.3254e-002, 1.7852e-005
 968.88900,299.13920, 1.3263e-002, 1.7864e-005
 969.38900,299.32708, 1.3271e-002, 1.7170e-005
 969.88900,299.51527, 1.3279e-002, 1.6408e-005
 970.38900,299.70273, 1.3287e-002, 1.5848e-005
 970.88900,299.88910, 1.3295e-002, 1.6421e-005
 971.38900,300.07356, 1.3302e-002, 1.5083e-005
 971.88900,300.25602, 1.3311e-002, 1.5108e-005
 972.38900,300.43611, 1.3318e-002, 1.5325e-005
 972.88900,300.61447, 1.3326e-002, 1.5642e-005
 973.38900,300.79142, 1.3334e-002, 1.5067e-005
 973.88900,300.96850, 1.3342e-002, 1.6434e-005
 974.38900,301.14667, 1.3350e-002, 1.6317e-005
 974.88900,301.32688, 1.3358e-002, 1.7856e-005
 975.38900,301.50945, 1.3367e-002, 1.7934e-005
 975.88900,301.69368, 1.3376e-002, 1.6672e-005
 976.38900,301.87958, 1.3384e-002, 1.6425e-005
 976.88900,302.06605, 1.3393e-002, 1.6529e-005
 977.38900,302.25344, 1.3401e-002, 1.7432e-005
 977.88900,302.44111, 1.3410e-002, 1.6581e-005
 978.38900,302.62854, 1.3417e-002, 1.6055e-005
 978.88900,302.81571, 1.3426e-002, 1.6526e-005
 979.38900,303.00193, 1.3434e-002, 1.7082e-005
 979.88900,303.18729, 1.3442e-002, 1.6944e-005
 980.38900,303.37246, 1.3450e-002, 1.5583e-005
 980.88900,303.55760, 1.3459e-002, 1.6725e-005
 981.38900,303.74344, 1.3467e-002, 1.6910e-005
 981.88900,303.93018, 1.3475e-002, 1.7185e-005
 982.38900,304.11784, 1.3483e-002, 1.6739e-005
 982.88900,304.30640, 1.3492e-002, 1.6764e-005
 983.38900,304.49590, 1.3500e-002, 1.7067e-005
 983.88900,304.68539, 1.3509e-002, 1.7175e-005
 984.38900,304.87407, 1.3517e-002, 1.6740e-005
 984.88900,305.06206, 1.3525e-002, 1.6048e-005
 985.38900,305.24898, 1.3534e-002, 1.6858e-005
 985.88900,305.43574, 1.3542e-002, 1.6149e-005
 986.38900,305.62285, 1.3550e-002, 1.6965e-005
 986.88900,305.81062, 1.3559e-002, 1.6725e-005
 987.38900,305.99977, 1.3567e-002, 1.6677e-005
 987.88900,306.18952, 1.3575e-002, 1.7031e-005
 988.38900,306.37888, 1.3585e-002, 1.6697e-005
 988.88900,306.56742, 1.3592e-002, 1.6102e-005
 989.38900,306.75400, 1.3601e-002, 1.6732e-005
 989.88900,306.93946, 1.3609e-002, 1.6045e-005
 990.38900,307.12466, 1.3617e-002, 1.5800e-005
 990.88900,307.31009, 1.3625e-002, 1.6716e-005
 991.38900,307.49705, 1.3634e-002, 1.8909e-005
 991.88900,307.68569, 1.3644e-002, 1.8093e-005
 992.38900,307.87560, 1.3652e-002, 1.7859e-005
 992.88900,308.06554, 1.3661e-002, 1.6871e-005
 993.38900,308.25538, 1.3670e-002, 1.7616e-005
 993.88900,308.44515, 1.3679e-002, 1.8056e-005
 994.38900,308.63478, 1.3688e-002, 1.7378e-005
 994.88900,308.82401, 1.3696e-002, 1.7715e-005
 995.38900,309.01276, 1.3705e-002, 1.7938e-005
 995.88900,309.20139, 1.3714e-002, 1.6916e-005
 996.38900,309.39045, 1.3722e-002, 1.8013e-005
 996.88900,309.58053, 1.3731e-002, 1.7519e-005
 997.38900,309.77002, 1.3740e-002, 1.7802e-005
 997.88900,309.95838, 1.3749e-002, 1.6569e-005
 998.38900,310.14514, 1.3757e-002, 1.7320e-005
 998.88900,310.33070, 1.3765e-002, 1.6700e-005
 999.38900,310.51635, 1.3773e-002, 1.6791e-005
 999.88900,310.70257, 1.3782e-002, 1.7701e-005
1000.38900,310.88993, 1.3791e-002, 1.7075e-005
1000.88900,311.07845, 1.3800e-002, 1.7398e-005
1001.38900,311.26707, 1.3809e-002, 1.8022e-005
1001.88900,311.45598, 1.3818e-002, 1.7419e-005
1002.38900,311.64448, 1.3827e-002, 1.7491e-005
1002.88900,311.83157, 1.3835e-002, 1.6462e-005
1003.38900,312.01685, 1.3843e-002, 1.5256e-005
1003.88900,312.19998, 1.3851e-002, 1.6404e-005
1004.38900,312.38126, 1.3859e-002, 1.5775e-005
1004.88900,312.56255, 1.3867e-002, 1.7147e-005
1005.38900,312.74508, 1.3875e-002, 1.6962e-005
1005.88900,312.92902, 1.3884e-002, 1.9104e-005
1006.38900,313.11470, 1.3893e-002, 1.6843e-005
1006.88900,313.30099, 1.3902e-002, 1.7926e-005
1007.38900,313.48741, 1.3911e-002, 1.6999e-005
1007.88900,313.67289, 1.3919e-002, 1.6007e-005
1008.38900,313.85673, 1.3927e-002, 1.6993e-005
1008.88900,314.03926, 1.3935e-002, 1.6102e-005
1009.38900,314.22046, 1.3943e-002, 1.6835e-005
1009.88900,314.40123, 1.3952e-002, 1.6852e-005
1010.38900,314.58217, 1.3960e-002, 1.7402e-005
1010.88900,314.76409, 1.3969e-002, 1.7814e-005
1011.38900,314.94659, 1.3978e-002, 1.8082e-005
1011.88900,315.12894, 1.3987e-002, 1.6687e-005
1012.38900,315.31124, 1.3995e-002, 1.6424e-005
1012.88900,315.49183, 1.4003e-002, 1.6275e-005
1013.38900,315.67209, 1.4011e-002, 1.6355e-005
1013.88900,315.85299, 1.4020e-002, 1.7059e-005
1014.38900,316.03409, 1.4029e-002, 1.7601e-005
1014.88900,316.21619, 1.4038e-002, 1.7140e-005
1015.38900,316.39904, 1.4046e-002, 1.7260e-005
1015.88900,316.58180, 1.4055e-002, 1.7996e-005
1016.38900,316.76552, 1.4064e-002, 1.7651e-005
1016.88900,316.95097, 1.4072e-002, 1.8628e-005
1017.38900,317.13795, 1.4081e-002, 1.6986e-005
1017.88900,317.32521, 1.4090e-002, 1.8291e-005
1018.38900,317.51201, 1.4099e-002, 1.7023e-005
1018.88900,317.69819, 1.4108e-002, 1.6896e-005
1019.38900,317.88362, 1.4116e-002, 1.7842e-005
1019.88900,318.07014, 1.4125e-002, 1.7801e-005
1020.38900,318.25755, 1.4134e-002, 1.7764e-005
1020.88900,318.44555, 1.4143e-002, 1.7530e-005
1021.38900,318.63476, 1.4152e-002, 1.8387e-005
1021.88900,318.82494, 1.4160e-002, 1.7722e-005
1022.38900,319.01635, 1.4170e-002, 1.7344e-005
1022.88900,319.20993, 1.4179e-002, 1.9574e-005
1023.38900,319.40556, 1.4189e-002, 1.7373e-005
1023.88900,319.60273, 1.4198e-002, 1.8542e-005
1024.38900,319.80060, 1.4207e-002, 1.7722e-005
1024.88900,319.99686, 1.4216e-002, 1.7780e-005
1025.38900,320.19149, 1.4225e-002, 1.6255e-005
1025.88900,320.38343, 1.4233e-002, 1.7192e-005
1026.38900,320.57255, 1.4241e-002, 1.7780e-005
1026.88900,320.75891, 1.4250e-002, 1.7353e-005
1027.38900,320.94044, 1.4258e-002, 1.6830e-005
1027.88900,321.11747, 1.4266e-002, 1.4989e-005
1028.38900,321.29103, 1.4274e-002, 1.6672e-005
1028.88900,321.46305, 1.4283e-002, 1.6511e-005
1029.38900,321.63647, 1.4291e-002, 1.7692e-005
1029.88900,321.81359, 1.4301e-002, 1.9330e-005
1030.38900,321.99632, 1.4311e-002, 2.0235e-005
1030.88900,322.18478, 1.4320e-002, 1.9819e-005
1031.38900,322.37725, 1.4330e-002, 1.9748e-005
1031.88900,322.57216, 1.4339e-002, 1.7854e-005
1032.38900,322.76779, 1.4348e-002, 1.8251e-005
1032.88900,322.96299, 1.4358e-002, 1.7201e-005
1033.38900,323.15894, 1.4367e-002, 1.8906e-005
1033.88900,323.35531, 1.4376e-002, 1.8411e-005
1034.38900,323.55369, 1.4385e-002, 1.8713e-005
1034.88900,323.75302, 1.4395e-002, 1.9084e-005
1035.38900,323.95505, 1.4404e-002, 1.8244e-005
1035.88900,324.16023, 1.4414e-002, 2.0296e-005
1036.38900,324.36628, 1.4424e-002, 1.9996e-005
1036.88900,324.56766, 1.4434e-002, 1.7379e-005
1037.38900,324.76088, 1.4442e-002, 1.4812e-005
1037.88900,324.94703, 1.4449e-002, 1.5901e-005
1038.38900,325.12781, 1.4458e-002, 1.8761e-005
1038.88900,325.30412, 1.4467e-002, 1.7948e-005
1039.38900,325.47619, 1.4475e-002, 1.5290e-005
1039.88900,325.64418, 1.4483e-002, 1.4871e-005
1040.38900,325.81015, 1.4492e-002, 1.7276e-005
1040.88900,325.97786, 1.4501e-002, 1.9108e-005
1041.38900,326.14878, 1.4511e-002, 2.0251e-005
1041.88900,326.32375, 1.4520e-002, 1.9183e-005
1042.38900,326.50327, 1.4530e-002, 1.9347e-005
1042.88900,326.68614, 1.4540e-002, 2.0217e-005
1043.38900,326.87226, 1.4550e-002, 2.0027e-005
1043.88900,327.06118, 1.4560e-002, 2.0036e-005
1044.38900,327.25013, 1.4570e-002, 1.9059e-005
1044.88900,327.43815, 1.4579e-002, 1.7342e-005
1045.38900,327.62450, 1.4587e-002, 1.7138e-005
1045.88900,327.80866, 1.4596e-002, 1.8775e-005
1046.38900,327.99199, 1.4605e-002, 1.7948e-005
1046.88900,328.17387, 1.4614e-002, 1.7455e-005
1047.38900,328.35502, 1.4623e-002, 1.6892e-005
1047.88900,328.53657, 1.4632e-002, 1.8902e-005
1048.38900,328.71926, 1.4641e-002, 1.8373e-005
1048.88900,328.90469, 1.4651e-002, 1.9348e-005
1049.38900,329.09237, 1.4660e-002, 1.9302e-005
1049.88900,329.28046, 1.4670e-002, 1.9959e-005
1050.38900,329.46566, 1.4679e-002, 1.7781e-005
1050.88900,329.64662, 1.4688e-002, 1.6354e-005
1051.38900,329.82272, 1.4696e-002, 1.6540e-005
1051.88900,329.99490, 1.4705e-002, 1.7612e-005
1052.38900,330.16510, 1.4714e-002, 1.6987e-005
1052.88900,330.33478, 1.4723e-002, 1.8408e-005
1053.38900,330.50534, 1.4732e-002, 1.8669e-005
1053.88900,330.67791, 1.4741e-002, 1.8931e-005
1054.38900,330.85306, 1.4751e-002, 1.9214e-005
1054.88900,331.03279, 1.4761e-002, 2.0025e-005
1055.38900,331.21754, 1.4771e-002, 2.1255e-005
1055.88900,331.40646, 1.4781e-002, 2.0122e-005
1056.38900,331.59885, 1.4791e-002, 2.0457e-005
1056.88900,331.79181, 1.4801e-002, 1.8692e-005
1057.38900,331.98664, 1.4811e-002, 2.0010e-005
1057.88900,332.18323, 1.4821e-002, 2.1291e-005
1058.38900,332.38171, 1.4831e-002, 1.9213e-005
1058.88900,332.57962, 1.4840e-002, 1.8920e-005
1059.38900,332.77441, 1.4850e-002, 1.9990e-005
1059.88900,332.96622, 1.4859e-002, 1.7672e-005
1060.38900,333.15465, 1.4869e-002, 1.9118e-005
1060.88900,333.33890, 1.4879e-002, 1.8935e-005
1061.38900,333.52001, 1.4887e-002, 1.7865e-005
1061.88900,333.69875, 1.4896e-002, 1.9086e-005
1062.38900,333.87600, 1.4906e-002, 1.9330e-005
1062.88900,334.05065, 1.4915e-002, 1.9679e-005
1063.38900,334.22176, 1.4924e-002, 1.6535e-005
1063.88900,334.38974, 1.4933e-002, 1.6630e-005
1064.38900,334.55565, 1.4942e-002, 1.8045e-005
1064.88900,334.72199, 1.4951e-002, 1.9093e-005
1065.38900,334.89112, 1.4961e-002, 1.9858e-005
1065.88900,335.06368, 1.4971e-002, 2.0172e-005
1066.38900,335.24004, 1.4980e-002, 2.0277e-005
1066.88900,335.41999, 1.4992e-002, 2.3923e-005
1067.38900,335.60475, 1.5002e-002, 2.2322e-005
1067.88900,335.79395, 1.5013e-002, 2.0346e-005
1068.38900,335.98574, 1.5023e-002, 2.0568e-005
1068.88900,336.17903, 1.5033e-002, 2.0101e-005
1069.38900,336.37081, 1.5043e-002, 2.0783e-005
1069.88900,336.56115, 1.5053e-002, 1.8331e-005
1070.38900,336.74920, 1.5062e-002, 1.9048e-005
1070.88900,336.93697, 1.5072e-002, 1.8601e-005
1071.38900,337.12509, 1.5082e-002, 1.9743e-005
1071.88900,337.31417, 1.5092e-002, 2.0183e-005
1072.38900,337.50458, 1.5102e-002, 1.9207e-005

