#EXPORTTYPE:           ,DATA ALL                                           
#FILE:                 ,fmt100Brun2.ngb-sle                                
#FORMAT:               ,NETZSCH5                                           
#FTYPE:                ,ANSI                                               
#IDENTITY:             ,fmt100Brun2                                        
#DECIMAL:              ,POINT                                              
#SEPARATOR:            ,COMMA                                              
#MTYPE:                ,DIL                                                
#INSTRUMENT:           ,NETZSCH DIL 402C                                   
#PROJECT:              ,feldspar                                           
#DATE/TIME:            ,8/18/2019 9:49:26 AM (UTC-5)                       
#CORR. FILE:           ,                                                   
#TEMPCAL:              ,TCALZERO.TMX                                       
#LABORATORY:           ,Mineral Physics                                    
#OPERATOR:             ,PAG                                                
#REMARK:               ,bare, norm start, for oligoclase fmt tall, reheated
#SAMPLE:               ,fmt100B                                            
#SAMPLE LENGTH /mm:    ,10.018                                             
#MATERIAL:             ,sapphire stnd                                      
#MEASMODE:             ,Standard Expansion                                 
#PURGE GAS 1:          ,ARGON                                              
#FLOW RATE 1 /(ml/min):,75                                                 
#M.RANGE /µm:          ,500                                                
#CORR. CODE:           ,010                                                
#RANGE:                ,20.0°C/3.0(K/min)/1000.0°C                         
#SEGMENT:              ,S1/1                                               
#SEG. 1:               ,20.0°C/3.0(K/min)/1000.0°C                         

##Temp./°C,Time/min,dL/Lo
  21.54300,  0.00000, 1.5723e-005
  22.04300,  4.03622, 2.8156e-006
  22.54300,  4.40666,-4.9960e-006
  23.04300,  4.66945,-1.1628e-005
  23.54300,  4.88286,-1.7022e-005
  24.04300,  5.06864,-2.2627e-005
  24.54300,  5.23626,-2.7780e-005
  25.04300,  5.39113,-3.2579e-005
  25.54300,  5.53618,-3.6780e-005
  26.04300,  5.67330,-4.0281e-005
  26.54300,  5.80408,-4.3507e-005
  27.04300,  5.93029,-4.6407e-005
  27.54300,  6.05231,-4.9739e-005
  28.04300,  6.17090,-5.1731e-005
  28.54300,  6.28677,-5.3729e-005
  29.04300,  6.40098,-5.5454e-005
  29.54300,  6.51377,-5.6823e-005
  30.04300,  6.62472,-5.8175e-005
  30.54300,  6.73459,-5.9181e-005
  31.04300,  6.84335,-6.0170e-005
  31.54300,  6.95144,-6.0582e-005
  32.04300,  7.05883,-6.0698e-005
  32.54300,  7.16494,-6.3073e-005
  33.04300,  7.27045,-6.2547e-005
  33.54300,  7.37567,-6.1806e-005
  34.04300,  7.48056,-6.0796e-005
  34.54300,  7.58504,-5.9658e-005
  35.04300,  7.68935,-5.8192e-005
  35.54300,  7.79333,-5.6972e-005
  36.04300,  7.89748,-5.5597e-005
  36.54300,  8.00165,-5.3714e-005
  37.04300,  8.10566,-5.1720e-005
  37.54300,  8.20985,-4.9745e-005
  38.04300,  8.31438,-4.7614e-005
  38.54300,  8.41875,-4.5235e-005
  39.04300,  8.52310,-4.2732e-005
  39.54300,  8.62727,-4.0392e-005
  40.04300,  8.73134,-3.7676e-005
  40.54300,  8.83535,-3.4786e-005
  41.04300,  8.93867,-3.1784e-005
  41.54300,  9.04178,-2.8843e-005
  42.04300,  9.14475,-2.5622e-005
  42.54300,  9.24738,-2.2645e-005
  43.04300,  9.34983,-1.9407e-005
  43.54300,  9.45186,-1.5928e-005
  44.04300,  9.55365,-1.3229e-005
  44.54300,  9.65547,-9.5832e-006
  45.04300,  9.75685,-6.4491e-006
  45.54300,  9.85809,-3.3360e-006
  46.04300,  9.95898, 7.5865e-008
  46.54300, 10.05941, 3.3338e-006
  47.04300, 10.15950, 6.9660e-006
  47.54300, 10.25910, 1.0122e-005
  48.04300, 10.35853, 1.3808e-005
  48.54300, 10.45793, 1.7649e-005
  49.04300, 10.55657, 2.0983e-005
  49.54300, 10.65471, 2.4487e-005
  50.04300, 10.75256, 2.8119e-005
  50.54300, 10.85006, 3.1768e-005
  51.04300, 10.94726, 3.5519e-005
  51.54300, 11.04403, 3.9364e-005
  52.04300, 11.14008, 4.3308e-005
  52.54300, 11.23600, 4.6391e-005
  53.04300, 11.33193, 4.9630e-005
  53.54300, 11.42766, 5.3624e-005
  54.04300, 11.52309, 5.7634e-005
  54.54300, 11.61851, 6.1480e-005
  55.04300, 11.71386, 6.5131e-005
  55.54300, 11.80907, 6.9462e-005
  56.04300, 11.90416, 7.3501e-005
  56.54300, 11.99902, 7.7725e-005
  57.04300, 12.09360, 8.1771e-005
  57.54300, 12.18803, 8.6007e-005
  58.04300, 12.28228, 9.0659e-005
  58.54300, 12.37661, 9.5132e-005
  59.04300, 12.47061, 9.9403e-005
  59.54300, 12.56460, 1.0398e-004
  60.04300, 12.65875, 1.0834e-004
  60.54300, 12.75284, 1.1289e-004
  61.04300, 12.84709, 1.1746e-004
  61.54300, 12.94136, 1.2226e-004
  62.04300, 13.03580, 1.2686e-004
  62.54300, 13.13019, 1.3145e-004
  63.04300, 13.22451, 1.3604e-004
  63.54300, 13.31881, 1.4100e-004
  64.04300, 13.41309, 1.4577e-004
  64.54300, 13.50733, 1.5079e-004
  65.04300, 13.60166, 1.5576e-004
  65.54300, 13.69584, 1.6064e-004
  66.04300, 13.79011, 1.6572e-004
  66.54300, 13.88449, 1.7082e-004
  67.04300, 13.97919, 1.7590e-004
  67.54300, 14.07383, 1.8109e-004
  68.04300, 14.16842, 1.8616e-004
  68.54300, 14.26327, 1.9159e-004
  69.04300, 14.35814, 1.9678e-004
  69.54300, 14.45300, 2.0195e-004
  70.04300, 14.54787, 2.0703e-004
  70.54300, 14.64258, 2.1282e-004
  71.04300, 14.73735, 2.1799e-004
  71.54300, 14.83215, 2.2333e-004
  72.04300, 14.92706, 2.2885e-004
  72.54300, 15.02198, 2.3414e-004
  73.04300, 15.11690, 2.4014e-004
  73.54300, 15.21196, 2.4444e-004
  74.04300, 15.30720, 2.4997e-004
  74.54300, 15.40260, 2.5561e-004
  75.04300, 15.49796, 2.6123e-004
  75.54300, 15.59333, 2.6672e-004
  76.04300, 15.68871, 2.7222e-004
  76.54300, 15.78408, 2.7770e-004
  77.04300, 15.87937, 2.8348e-004
  77.54300, 15.97482, 2.8930e-004
  78.04300, 16.07003, 2.9460e-004
  78.54300, 16.16532, 3.0037e-004
  79.04300, 16.26079, 3.0623e-004
  79.54300, 16.35634, 3.1221e-004
  80.04300, 16.45218, 3.1800e-004
  80.54300, 16.54817, 3.2341e-004
  81.04300, 16.64428, 3.2913e-004
  81.54300, 16.74063, 3.3498e-004
  82.04300, 16.83718, 3.4082e-004
  82.54300, 16.93397, 3.4645e-004
  83.04300, 17.03078, 3.5242e-004
  83.54300, 17.12769, 3.5836e-004
  84.04300, 17.22451, 3.6391e-004
  84.54300, 17.32150, 3.6970e-004
  85.04300, 17.41840, 3.7579e-004
  85.54300, 17.51528, 3.8203e-004
  86.04300, 17.61216, 3.8780e-004
  86.54300, 17.70911, 3.9379e-004
  87.04300, 17.80620, 3.9976e-004
  87.54300, 17.90348, 4.0583e-004
  88.04300, 18.00074, 4.1153e-004
  88.54300, 18.09815, 4.1770e-004
  89.04300, 18.19578, 4.2352e-004
  89.54300, 18.29359, 4.2983e-004
  90.04300, 18.39162, 4.3587e-004
  90.54300, 18.48944, 4.4163e-004
  91.04300, 18.58748, 4.4786e-004
  91.54300, 18.68553, 4.5405e-004
  92.04300, 18.78365, 4.6009e-004
  92.54300, 18.88179, 4.6619e-004
  93.04300, 18.98008, 4.7256e-004
  93.54300, 19.07833, 4.7849e-004
  94.04300, 19.17689, 4.8481e-004
  94.54300, 19.27549, 4.9095e-004
  95.04300, 19.37436, 4.9710e-004
  95.54300, 19.47358, 5.0352e-004
  96.04300, 19.57290, 5.0945e-004
  96.54300, 19.67232, 5.1533e-004
  97.04300, 19.77180, 5.2179e-004
  97.54300, 19.87141, 5.2814e-004
  98.04300, 19.97106, 5.3463e-004
  98.54300, 20.07070, 5.4054e-004
  99.04300, 20.17031, 5.4675e-004
  99.54300, 20.26994, 5.5305e-004
 100.04300, 20.36962, 5.5922e-004
 100.54300, 20.46926, 5.6551e-004
 101.04300, 20.56898, 5.7227e-004
 101.54300, 20.66858, 5.7816e-004
 102.04300, 20.76820, 5.8441e-004
 102.54300, 20.86784, 5.9063e-004
 103.04300, 20.96780, 5.9708e-004
 103.54300, 21.06787, 6.0339e-004
 104.04300, 21.16808, 6.0969e-004
 104.54300, 21.26838, 6.1542e-004
 105.04300, 21.36879, 6.2198e-004
 105.54300, 21.46933, 6.2844e-004
 106.04300, 21.57008, 6.3475e-004
 106.54300, 21.67053, 6.4127e-004
 107.04300, 21.77113, 6.4777e-004
 107.54300, 21.87185, 6.5383e-004
 108.04300, 21.97264, 6.6016e-004
 108.54300, 22.07356, 6.6682e-004
 109.04300, 22.17465, 6.7276e-004
 109.54300, 22.27556, 6.7912e-004
 110.04300, 22.37684, 6.8559e-004
 110.54300, 22.47806, 6.9178e-004
 111.04300, 22.57934, 6.9830e-004
 111.54300, 22.68080, 7.0448e-004
 112.04300, 22.78239, 7.1070e-004
 112.54300, 22.88410, 7.1751e-004
 113.04300, 22.98603, 7.2348e-004
 113.54300, 23.08806, 7.2997e-004
 114.04300, 23.19016, 7.3652e-004
 114.54300, 23.29222, 7.4279e-004
 115.04300, 23.39446, 7.4920e-004
 115.54300, 23.49665, 7.5576e-004
 116.04300, 23.59893, 7.6215e-004
 116.54300, 23.70131, 7.6832e-004
 117.04300, 23.80365, 7.7515e-004
 117.54300, 23.90610, 7.8139e-004
 118.04300, 24.00865, 7.8763e-004
 118.54300, 24.11116, 7.9395e-004
 119.04300, 24.21384, 8.0078e-004
 119.54300, 24.31649, 8.0718e-004
 120.04300, 24.41914, 8.1363e-004
 120.54300, 24.52188, 8.1996e-004
 121.04300, 24.62468, 8.2674e-004
 121.54300, 24.72749, 8.3301e-004
 122.04300, 24.83043, 8.3945e-004
 122.54300, 24.93343, 8.4576e-004
 123.04300, 25.03653, 8.5215e-004
 123.54300, 25.13987, 8.5879e-004
 124.04300, 25.24322, 8.6493e-004
 124.54300, 25.34653, 8.7140e-004
 125.04300, 25.45003, 8.7803e-004
 125.54300, 25.55336, 8.8450e-004
 126.04300, 25.65687, 8.9145e-004
 126.54300, 25.76033, 8.9766e-004
 127.04300, 25.86386, 9.0394e-004
 127.54300, 25.96752, 9.1042e-004
 128.04300, 26.07129, 9.1692e-004
 128.54300, 26.17505, 9.2348e-004
 129.04300, 26.27899, 9.2984e-004
 129.54300, 26.38269, 9.3668e-004
 130.04300, 26.48660, 9.4320e-004
 130.54300, 26.59028, 9.4970e-004
 131.04300, 26.69409, 9.5644e-004
 131.54300, 26.79808, 9.6300e-004
 132.04300, 26.90217, 9.6936e-004
 132.54300, 27.00635, 9.7585e-004
 133.04300, 27.11082, 9.8257e-004
 133.54300, 27.21543, 9.8885e-004
 134.04300, 27.32011, 9.9535e-004
 134.54300, 27.42475, 1.0017e-003
 135.04300, 27.52954, 1.0083e-003
 135.54300, 27.63450, 1.0152e-003
 136.04300, 27.73940, 1.0218e-003
 136.54300, 27.84438, 1.0283e-003
 137.04300, 27.94957, 1.0348e-003
 137.54300, 28.05498, 1.0411e-003
 138.04300, 28.16050, 1.0475e-003
 138.54300, 28.26586, 1.0545e-003
 139.04300, 28.37139, 1.0607e-003
 139.54300, 28.47691, 1.0678e-003
 140.04300, 28.58252, 1.0740e-003
 140.54300, 28.68795, 1.0806e-003
 141.04300, 28.79343, 1.0871e-003
 141.54300, 28.89882, 1.0939e-003
 142.04300, 29.00424, 1.1004e-003
 142.54300, 29.10964, 1.1072e-003
 143.04300, 29.21500, 1.1135e-003
 143.54300, 29.32046, 1.1204e-003
 144.04300, 29.42603, 1.1272e-003
 144.54300, 29.53156, 1.1337e-003
 145.04300, 29.63715, 1.1400e-003
 145.54300, 29.74292, 1.1466e-003
 146.04300, 29.84880, 1.1535e-003
 146.54300, 29.95477, 1.1604e-003
 147.04300, 30.06075, 1.1672e-003
 147.54300, 30.16673, 1.1736e-003
 148.04300, 30.27307, 1.1801e-003
 148.54300, 30.37947, 1.1870e-003
 149.04300, 30.48598, 1.1934e-003
 149.54300, 30.59251, 1.2002e-003
 150.04300, 30.69910, 1.2068e-003
 150.54300, 30.80587, 1.2133e-003
 151.04300, 30.91295, 1.2202e-003
 151.54300, 31.02013, 1.2268e-003
 152.04300, 31.12746, 1.2337e-003
 152.54300, 31.23458, 1.2402e-003
 153.04300, 31.34161, 1.2466e-003
 153.54300, 31.44923, 1.2534e-003
 154.04300, 31.55652, 1.2603e-003
 154.54300, 31.66361, 1.2670e-003
 155.04300, 31.77053, 1.2738e-003
 155.54300, 31.87737, 1.2803e-003
 156.04300, 31.98467, 1.2873e-003
 156.54300, 32.09173, 1.2941e-003
 157.04300, 32.19859, 1.3010e-003
 157.54300, 32.30582, 1.3074e-003
 158.04300, 32.41333, 1.3143e-003
 158.54300, 32.52101, 1.3208e-003
 159.04300, 32.62880, 1.3273e-003
 159.54300, 32.73662, 1.3345e-003
 160.04300, 32.84463, 1.3409e-003
 160.54300, 32.95259, 1.3475e-003
 161.04300, 33.06051, 1.3547e-003
 161.54300, 33.16860, 1.3611e-003
 162.04300, 33.27666, 1.3679e-003
 162.54300, 33.38499, 1.3746e-003
 163.04300, 33.49320, 1.3813e-003
 163.54300, 33.60152, 1.3879e-003
 164.04300, 33.71007, 1.3944e-003
 164.54300, 33.81859, 1.4014e-003
 165.04300, 33.92700, 1.4082e-003
 165.54300, 34.03556, 1.4148e-003
 166.04300, 34.14428, 1.4216e-003
 166.54300, 34.25285, 1.4285e-003
 167.04300, 34.36142, 1.4351e-003
 167.54300, 34.47008, 1.4417e-003
 168.04300, 34.57876, 1.4484e-003
 168.54300, 34.68752, 1.4550e-003
 169.04300, 34.79620, 1.4624e-003
 169.54300, 34.90503, 1.4689e-003
 170.04300, 35.01399, 1.4755e-003
 170.54300, 35.12324, 1.4823e-003
 171.04300, 35.23269, 1.4891e-003
 171.54300, 35.34241, 1.4959e-003
 172.04300, 35.45214, 1.5022e-003
 172.54300, 35.56217, 1.5093e-003
 173.04300, 35.67216, 1.5161e-003
 173.54300, 35.78222, 1.5225e-003
 174.04300, 35.89184, 1.5297e-003
 174.54300, 36.00156, 1.5367e-003
 175.04300, 36.11131, 1.5433e-003
 175.54300, 36.22101, 1.5502e-003
 176.04300, 36.33065, 1.5568e-003
 176.54300, 36.44027, 1.5633e-003
 177.04300, 36.55012, 1.5706e-003
 177.54300, 36.66003, 1.5771e-003
 178.04300, 36.76997, 1.5843e-003
 178.54300, 36.88001, 1.5907e-003
 179.04300, 36.99006, 1.5977e-003
 179.54300, 37.10024, 1.6042e-003
 180.04300, 37.21043, 1.6112e-003
 180.54300, 37.32065, 1.6179e-003
 181.04300, 37.43111, 1.6245e-003
 181.54300, 37.54168, 1.6311e-003
 182.04300, 37.65244, 1.6381e-003
 182.54300, 37.76333, 1.6448e-003
 183.04300, 37.87427, 1.6516e-003
 183.54300, 37.98542, 1.6584e-003
 184.04300, 38.09647, 1.6652e-003
 184.54300, 38.20740, 1.6717e-003
 185.04300, 38.31834, 1.6789e-003
 185.54300, 38.42925, 1.6858e-003
 186.04300, 38.54037, 1.6923e-003
 186.54300, 38.65136, 1.6992e-003
 187.04300, 38.76249, 1.7058e-003
 187.54300, 38.87361, 1.7125e-003
 188.04300, 38.98482, 1.7194e-003
 188.54300, 39.09602, 1.7263e-003
 189.04300, 39.20718, 1.7327e-003
 189.54300, 39.31853, 1.7398e-003
 190.04300, 39.42992, 1.7469e-003
 190.54300, 39.54156, 1.7535e-003
 191.04300, 39.65326, 1.7605e-003
 191.54300, 39.76500, 1.7670e-003
 192.04300, 39.87668, 1.7738e-003
 192.54300, 39.98836, 1.7803e-003
 193.04300, 40.10000, 1.7872e-003
 193.54300, 40.21150, 1.7941e-003
 194.04300, 40.32302, 1.8015e-003
 194.54300, 40.43464, 1.8082e-003
 195.04300, 40.54667, 1.8148e-003
 195.54300, 40.65876, 1.8214e-003
 196.04300, 40.77105, 1.8284e-003
 196.54300, 40.88334, 1.8350e-003
 197.04300, 40.99610, 1.8420e-003
 197.54300, 41.10889, 1.8489e-003
 198.04300, 41.22152, 1.8556e-003
 198.54300, 41.33438, 1.8625e-003
 199.04300, 41.44722, 1.8690e-003
 199.54300, 41.56012, 1.8755e-003
 200.04300, 41.67307, 1.8825e-003
 200.54300, 41.78588, 1.8891e-003
 201.04300, 41.89898, 1.8958e-003
 201.54300, 42.01204, 1.9027e-003
 202.04300, 42.12530, 1.9094e-003
 202.54300, 42.23875, 1.9165e-003
 203.04300, 42.35220, 1.9232e-003
 203.54300, 42.46561, 1.9301e-003
 204.04300, 42.57909, 1.9368e-003
 204.54300, 42.69264, 1.9436e-003
 205.04300, 42.80641, 1.9503e-003
 205.54300, 42.92048, 1.9572e-003
 206.04300, 43.03428, 1.9639e-003
 206.54300, 43.14848, 1.9709e-003
 207.04300, 43.26248, 1.9775e-003
 207.54300, 43.37671, 1.9843e-003
 208.04300, 43.49075, 1.9913e-003
 208.54300, 43.60479, 1.9978e-003
 209.04300, 43.71929, 2.0047e-003
 209.54300, 43.83356, 2.0116e-003
 210.04300, 43.94799, 2.0184e-003
 210.54300, 44.06249, 2.0251e-003
 211.04300, 44.17682, 2.0321e-003
 211.54300, 44.29123, 2.0390e-003
 212.04300, 44.40559, 2.0455e-003
 212.54300, 44.52007, 2.0523e-003
 213.04300, 44.63460, 2.0593e-003
 213.54300, 44.74910, 2.0658e-003
 214.04300, 44.86382, 2.0727e-003
 214.54300, 44.97885, 2.0795e-003
 215.04300, 45.09372, 2.0864e-003
 215.54300, 45.20874, 2.0932e-003
 216.04300, 45.32381, 2.1003e-003
 216.54300, 45.43894, 2.1068e-003
 217.04300, 45.55426, 2.1135e-003
 217.54300, 45.66954, 2.1208e-003
 218.04300, 45.78502, 2.1274e-003
 218.54300, 45.90056, 2.1337e-003
 219.04300, 46.01614, 2.1408e-003
 219.54300, 46.13173, 2.1476e-003
 220.04300, 46.24756, 2.1543e-003
 220.54300, 46.36322, 2.1613e-003
 221.04300, 46.47885, 2.1682e-003
 221.54300, 46.59463, 2.1750e-003
 222.04300, 46.71069, 2.1817e-003
 222.54300, 46.82712, 2.1887e-003
 223.04300, 46.94344, 2.1951e-003
 223.54300, 47.05994, 2.2023e-003
 224.04300, 47.17675, 2.2089e-003
 224.54300, 47.29348, 2.2158e-003
 225.04300, 47.41007, 2.2224e-003
 225.54300, 47.52665, 2.2295e-003
 226.04300, 47.64337, 2.2359e-003
 226.54300, 47.76001, 2.2433e-003
 227.04300, 47.87662, 2.2493e-003
 227.54300, 47.99339, 2.2568e-003
 228.04300, 48.11025, 2.2635e-003
 228.54300, 48.22704, 2.2704e-003
 229.04300, 48.34403, 2.2775e-003
 229.54300, 48.46130, 2.2839e-003
 230.04300, 48.57860, 2.2910e-003
 230.54300, 48.69586, 2.2976e-003
 231.04300, 48.81333, 2.3044e-003
 231.54300, 48.93097, 2.3115e-003
 232.04300, 49.04863, 2.3182e-003
 232.54300, 49.16619, 2.3249e-003
 233.04300, 49.28393, 2.3318e-003
 233.54300, 49.40183, 2.3385e-003
 234.04300, 49.51979, 2.3450e-003
 234.54300, 49.63773, 2.3522e-003
 235.04300, 49.75567, 2.3591e-003
 235.54300, 49.87371, 2.3658e-003
 236.04300, 49.99185, 2.3727e-003
 236.54300, 50.11008, 2.3798e-003
 237.04300, 50.22813, 2.3865e-003
 237.54300, 50.34621, 2.3932e-003
 238.04300, 50.46458, 2.4002e-003
 238.54300, 50.58297, 2.4072e-003
 239.04300, 50.70125, 2.4135e-003
 239.54300, 50.81952, 2.4208e-003
 240.04300, 50.93801, 2.4278e-003
 240.54300, 51.05681, 2.4347e-003
 241.04300, 51.17554, 2.4414e-003
 241.54300, 51.29424, 2.4483e-003
 242.04300, 51.41321, 2.4548e-003
 242.54300, 51.53229, 2.4620e-003
 243.04300, 51.65138, 2.4688e-003
 243.54300, 51.77048, 2.4756e-003
 244.04300, 51.88971, 2.4826e-003
 244.54300, 52.00930, 2.4891e-003
 245.04300, 52.12867, 2.4964e-003
 245.54300, 52.24816, 2.5033e-003
 246.04300, 52.36780, 2.5098e-003
 246.54300, 52.48753, 2.5168e-003
 247.04300, 52.60712, 2.5235e-003
 247.54300, 52.72687, 2.5306e-003
 248.04300, 52.84700, 2.5376e-003
 248.54300, 52.96728, 2.5440e-003
 249.04300, 53.08760, 2.5508e-003
 249.54300, 53.20793, 2.5574e-003
 250.04300, 53.32850, 2.5644e-003
 250.54300, 53.44880, 2.5719e-003
 251.04300, 53.56915, 2.5782e-003
 251.54300, 53.68945, 2.5853e-003
 252.04300, 53.80999, 2.5920e-003
 252.54300, 53.93058, 2.5987e-003
 253.04300, 54.05128, 2.6057e-003
 253.54300, 54.17224, 2.6124e-003
 254.04300, 54.29309, 2.6191e-003
 254.54300, 54.41409, 2.6260e-003
 255.04300, 54.53507, 2.6331e-003
 255.54300, 54.65616, 2.6400e-003
 256.04300, 54.77727, 2.6468e-003
 256.54300, 54.89847, 2.6535e-003
 257.04300, 55.01994, 2.6602e-003
 257.54300, 55.14147, 2.6670e-003
 258.04300, 55.26295, 2.6740e-003
 258.54300, 55.38462, 2.6808e-003
 259.04300, 55.50649, 2.6876e-003
 259.54300, 55.62832, 2.6946e-003
 260.04300, 55.75004, 2.7012e-003
 260.54300, 55.87193, 2.7080e-003
 261.04300, 55.99407, 2.7147e-003
 261.54300, 56.11615, 2.7215e-003
 262.04300, 56.23819, 2.7284e-003
 262.54300, 56.36045, 2.7349e-003
 263.04300, 56.48282, 2.7419e-003
 263.54300, 56.60526, 2.7490e-003
 264.04300, 56.72752, 2.7556e-003
 264.54300, 56.84978, 2.7623e-003
 265.04300, 56.97207, 2.7694e-003
 265.54300, 57.09436, 2.7762e-003
 266.04300, 57.21686, 2.7827e-003
 266.54300, 57.33947, 2.7894e-003
 267.04300, 57.46223, 2.7966e-003
 267.54300, 57.58515, 2.8033e-003
 268.04300, 57.70827, 2.8101e-003
 268.54300, 57.83146, 2.8170e-003
 269.04300, 57.95470, 2.8241e-003
 269.54300, 58.07801, 2.8308e-003
 270.04300, 58.20140, 2.8375e-003
 270.54300, 58.32493, 2.8446e-003
 271.04300, 58.44877, 2.8511e-003
 271.54300, 58.57243, 2.8578e-003
 272.04300, 58.69644, 2.8648e-003
 272.54300, 58.82061, 2.8714e-003
 273.04300, 58.94497, 2.8786e-003
 273.54300, 59.06918, 2.8849e-003
 274.04300, 59.19357, 2.8921e-003
 274.54300, 59.31811, 2.8989e-003
 275.04300, 59.44255, 2.9057e-003
 275.54300, 59.56684, 2.9124e-003
 276.04300, 59.69121, 2.9200e-003
 276.54300, 59.81556, 2.9263e-003
 277.04300, 59.94023, 2.9337e-003
 277.54300, 60.06502, 2.9398e-003
 278.04300, 60.19025, 2.9466e-003
 278.54300, 60.31596, 2.9534e-003
 279.04300, 60.44180, 2.9604e-003
 279.54300, 60.56764, 2.9670e-003
 280.04300, 60.69296, 2.9742e-003
 280.54300, 60.81811, 2.9810e-003
 281.04300, 60.94296, 2.9877e-003
 281.54300, 61.06779, 2.9947e-003
 282.04300, 61.19293, 3.0015e-003
 282.54300, 61.31839, 3.0083e-003
 283.04300, 61.44440, 3.0150e-003
 283.54300, 61.57027, 3.0215e-003
 284.04300, 61.69638, 3.0283e-003
 284.54300, 61.82227, 3.0351e-003
 285.04300, 61.94762, 3.0420e-003
 285.54300, 62.07292, 3.0490e-003
 286.04300, 62.19816, 3.0557e-003
 286.54300, 62.32366, 3.0626e-003
 287.04300, 62.44926, 3.0692e-003
 287.54300, 62.57511, 3.0759e-003
 288.04300, 62.70122, 3.0825e-003
 288.54300, 62.82755, 3.0893e-003
 289.04300, 62.95397, 3.0962e-003
 289.54300, 63.08046, 3.1026e-003
 290.04300, 63.20703, 3.1096e-003
 290.54300, 63.33373, 3.1164e-003
 291.04300, 63.46040, 3.1231e-003
 291.54300, 63.58715, 3.1308e-003
 292.04300, 63.71389, 3.1373e-003
 292.54300, 63.84061, 3.1441e-003
 293.04300, 63.96764, 3.1507e-003
 293.54300, 64.09464, 3.1577e-003
 294.04300, 64.22181, 3.1643e-003
 294.54300, 64.34933, 3.1714e-003
 295.04300, 64.47691, 3.1781e-003
 295.54300, 64.60476, 3.1850e-003
 296.04300, 64.73298, 3.1926e-003
 296.54300, 64.86127, 3.1991e-003
 297.04300, 64.98944, 3.2059e-003
 297.54300, 65.11771, 3.2140e-003
 298.04300, 65.24609, 3.2207e-003
 298.54300, 65.37447, 3.2275e-003
 299.04300, 65.50270, 3.2341e-003
 299.54300, 65.63124, 3.2410e-003
 300.04300, 65.75975, 3.2477e-003
 300.54300, 65.88843, 3.2546e-003
 301.04300, 66.01708, 3.2615e-003
 301.54300, 66.14616, 3.2692e-003
 302.04300, 66.27508, 3.2760e-003
 302.54300, 66.40407, 3.2825e-003
 303.04300, 66.53337, 3.2892e-003
 303.54300, 66.66260, 3.2960e-003
 304.04300, 66.79150, 3.3026e-003
 304.54300, 66.92035, 3.3091e-003
 305.04300, 67.04937, 3.3171e-003
 305.54300, 67.17833, 3.3239e-003
 306.04300, 67.30755, 3.3310e-003
 306.54300, 67.43701, 3.3378e-003
 307.04300, 67.56620, 3.3441e-003
 307.54300, 67.69553, 3.3510e-003
 308.04300, 67.82496, 3.3577e-003
 308.54300, 67.95425, 3.3644e-003
 309.04300, 68.08361, 3.3707e-003
 309.54300, 68.21344, 3.3784e-003
 310.04300, 68.34332, 3.3858e-003
 310.54300, 68.47333, 3.3924e-003
 311.04300, 68.60348, 3.3992e-003
 311.54300, 68.73368, 3.4057e-003
 312.04300, 68.86419, 3.4125e-003
 312.54300, 68.99469, 3.4192e-003
 313.04300, 69.12519, 3.4258e-003
 313.54300, 69.25564, 3.4328e-003
 314.04300, 69.38630, 3.4393e-003
 314.54300, 69.51681, 3.4460e-003
 315.04300, 69.64724, 3.4526e-003
 315.54300, 69.77814, 3.4611e-003
 316.04300, 69.90958, 3.4679e-003
 316.54300, 70.04093, 3.4744e-003
 317.04300, 70.17235, 3.4815e-003
 317.54300, 70.30410, 3.4880e-003
 318.04300, 70.43576, 3.4952e-003
 318.54300, 70.56728, 3.5015e-003
 319.04300, 70.69884, 3.5084e-003
 319.54300, 70.83060, 3.5151e-003
 320.04300, 70.96279, 3.5227e-003
 320.54300, 71.09514, 3.5292e-003
 321.04300, 71.22743, 3.5360e-003
 321.54300, 71.36016, 3.5424e-003
 322.04300, 71.49299, 3.5494e-003
 322.54300, 71.62552, 3.5557e-003
 323.04300, 71.75765, 3.5634e-003
 323.54300, 71.88962, 3.5701e-003
 324.04300, 72.02145, 3.5769e-003
 324.54300, 72.15334, 3.5840e-003
 325.04300, 72.28519, 3.5903e-003
 325.54300, 72.41721, 3.5966e-003
 326.04300, 72.54973, 3.6036e-003
 326.54300, 72.68252, 3.6109e-003
 327.04300, 72.81534, 3.6179e-003
 327.54300, 72.94839, 3.6245e-003
 328.04300, 73.08180, 3.6314e-003
 328.54300, 73.21497, 3.6376e-003
 329.04300, 73.34829, 3.6443e-003
 329.54300, 73.48159, 3.6510e-003
 330.04300, 73.61484, 3.6580e-003
 330.54300, 73.74801, 3.6659e-003
 331.04300, 73.88127, 3.6727e-003
 331.54300, 74.01469, 3.6794e-003
 332.04300, 74.14831, 3.6862e-003
 332.54300, 74.28215, 3.6928e-003
 333.04300, 74.41649, 3.6993e-003
 333.54300, 74.55115, 3.7061e-003
 334.04300, 74.68581, 3.7126e-003
 334.54300, 74.82018, 3.7194e-003
 335.04300, 74.95475, 3.7260e-003
 335.54300, 75.08912, 3.7328e-003
 336.04300, 75.22324, 3.7401e-003
 336.54300, 75.35753, 3.7473e-003
 337.04300, 75.49199, 3.7539e-003
 337.54300, 75.62646, 3.7604e-003
 338.04300, 75.76070, 3.7672e-003
 338.54300, 75.89508, 3.7739e-003
 339.04300, 76.02952, 3.7804e-003
 339.54300, 76.16402, 3.7867e-003
 340.04300, 76.29881, 3.7936e-003
 340.54300, 76.43367, 3.7998e-003
 341.04300, 76.56876, 3.8076e-003
 341.54300, 76.70377, 3.8146e-003
 342.04300, 76.83883, 3.8211e-003
 342.54300, 76.97387, 3.8276e-003
 343.04300, 77.10889, 3.8343e-003
 343.54300, 77.24407, 3.8415e-003
 344.04300, 77.37911, 3.8479e-003
 344.54300, 77.51438, 3.8546e-003
 345.04300, 77.65001, 3.8615e-003
 345.54300, 77.78597, 3.8679e-003
 346.04300, 77.92209, 3.8744e-003
 346.54300, 78.05820, 3.8819e-003
 347.04300, 78.19405, 3.8888e-003
 347.54300, 78.32962, 3.8955e-003
 348.04300, 78.46542, 3.9021e-003
 348.54300, 78.60136, 3.9110e-003
 349.04300, 78.73758, 3.9173e-003
 349.54300, 78.87435, 3.9241e-003
 350.04300, 79.01154, 3.9305e-003
 350.54300, 79.14853, 3.9376e-003
 351.04300, 79.28560, 3.9440e-003
 351.54300, 79.42288, 3.9507e-003
 352.04300, 79.55972, 3.9571e-003
 352.54300, 79.69630, 3.9638e-003
 353.04300, 79.83286, 3.9706e-003
 353.54300, 79.96951, 3.9771e-003
 354.04300, 80.10617, 3.9837e-003
 354.54300, 80.24302, 3.9905e-003
 355.04300, 80.38045, 3.9979e-003
 355.54300, 80.51828, 4.0045e-003
 356.04300, 80.65609, 4.0111e-003
 356.54300, 80.79403, 4.0180e-003
 357.04300, 80.93233, 4.0245e-003
 357.54300, 81.07063, 4.0312e-003
 358.04300, 81.20904, 4.0373e-003
 358.54300, 81.34726, 4.0458e-003
 359.04300, 81.48599, 4.0528e-003
 359.54300, 81.62482, 4.0594e-003
 360.04300, 81.76344, 4.0657e-003
 360.54300, 81.90184, 4.0724e-003
 361.04300, 82.04063, 4.0790e-003
 361.54300, 82.17927, 4.0857e-003
 362.04300, 82.31782, 4.0921e-003
 362.54300, 82.45645, 4.0988e-003
 363.04300, 82.59523, 4.1054e-003
 363.54300, 82.73417, 4.1121e-003
 364.04300, 82.87301, 4.1189e-003
 364.54300, 83.01205, 4.1269e-003
 365.04300, 83.15121, 4.1337e-003
 365.54300, 83.29042, 4.1406e-003
 366.04300, 83.42966, 4.1470e-003
 366.54300, 83.56911, 4.1535e-003
 367.04300, 83.70856, 4.1610e-003
 367.54300, 83.84809, 4.1681e-003
 368.04300, 83.98760, 4.1750e-003
 368.54300, 84.12715, 4.1817e-003
 369.04300, 84.26676, 4.1883e-003
 369.54300, 84.40638, 4.1953e-003
 370.04300, 84.54615, 4.2025e-003
 370.54300, 84.68614, 4.2096e-003
 371.04300, 84.82650, 4.2159e-003
 371.54300, 84.96682, 4.2235e-003
 372.04300, 85.10702, 4.2300e-003
 372.54300, 85.24697, 4.2371e-003
 373.04300, 85.38689, 4.2436e-003
 373.54300, 85.52699, 4.2502e-003
 374.04300, 85.66707, 4.2569e-003
 374.54300, 85.80743, 4.2637e-003
 375.04300, 85.94799, 4.2705e-003
 375.54300, 86.08856, 4.2783e-003
 376.04300, 86.22900, 4.2849e-003
 376.54300, 86.36940, 4.2914e-003
 377.04300, 86.50980, 4.2981e-003
 377.54300, 86.65042, 4.3053e-003
 378.04300, 86.79133, 4.3121e-003
 378.54300, 86.93223, 4.3191e-003
 379.04300, 87.07352, 4.3258e-003
 379.54300, 87.21448, 4.3327e-003
 380.04300, 87.35554, 4.3395e-003
 380.54300, 87.49669, 4.3468e-003
 381.04300, 87.63802, 4.3547e-003
 381.54300, 87.77954, 4.3609e-003
 382.04300, 87.92174, 4.3677e-003
 382.54300, 88.06415, 4.3741e-003
 383.04300, 88.20675, 4.3811e-003
 383.54300, 88.34920, 4.3877e-003
 384.04300, 88.49147, 4.3950e-003
 384.54300, 88.63357, 4.4022e-003
 385.04300, 88.77553, 4.4087e-003
 385.54300, 88.91739, 4.4165e-003
 386.04300, 89.05927, 4.4232e-003
 386.54300, 89.20124, 4.4298e-003
 387.04300, 89.34369, 4.4364e-003
 387.54300, 89.48607, 4.4433e-003
 388.04300, 89.62836, 4.4504e-003
 388.54300, 89.77117, 4.4567e-003
 389.04300, 89.91398, 4.4770e-003
 389.54300, 90.05660, 4.4834e-003
 390.04300, 90.19942, 4.4904e-003
 390.54300, 90.34248, 4.4974e-003
 391.04300, 90.48551, 4.5042e-003
 391.54300, 90.62881, 4.5111e-003
 392.04300, 90.77235, 4.5176e-003
 392.54300, 90.91630, 4.5248e-003
 393.04300, 91.06001, 4.5317e-003
 393.54300, 91.20369, 4.5385e-003
 394.04300, 91.34747, 4.5454e-003
 394.54300, 91.49111, 4.5520e-003
 395.04300, 91.63467, 4.5588e-003
 395.54300, 91.77885, 4.5658e-003
 396.04300, 91.92296, 4.5727e-003
 396.54300, 92.06700, 4.5791e-003
 397.04300, 92.21120, 4.5862e-003
 397.54300, 92.35531, 4.5932e-003
 398.04300, 92.49937, 4.5994e-003
 398.54300, 92.64352, 4.6064e-003
 399.04300, 92.78800, 4.6131e-003
 399.54300, 92.93259, 4.6198e-003
 400.04300, 93.07713, 4.6265e-003
 400.54300, 93.22198, 4.6332e-003
 401.04300, 93.36690, 4.6401e-003
 401.54300, 93.51175, 4.6465e-003
 402.04300, 93.65664, 4.6537e-003
 402.54300, 93.80164, 4.6607e-003
 403.04300, 93.94653, 4.6670e-003
 403.54300, 94.09151, 4.6732e-003
 404.04300, 94.23685, 4.6803e-003
 404.54300, 94.38233, 4.6889e-003
 405.04300, 94.52840, 4.6960e-003
 405.54300, 94.67473, 4.7022e-003
 406.04300, 94.82126, 4.7091e-003
 406.54300, 94.96767, 4.7162e-003
 407.04300, 95.11426, 4.7231e-003
 407.54300, 95.26029, 4.7297e-003
 408.04300, 95.40629, 4.7366e-003
 408.54300, 95.55203, 4.7431e-003
 409.04300, 95.69770, 4.7499e-003
 409.54300, 95.84373, 4.7570e-003
 410.04300, 95.99029, 4.7638e-003
 410.54300, 96.13715, 4.7703e-003
 411.04300, 96.28437, 4.7770e-003
 411.54300, 96.43197, 4.7838e-003
 412.04300, 96.57932, 4.7904e-003
 412.54300, 96.72630, 4.7971e-003
 413.04300, 96.87283, 4.8036e-003
 413.54300, 97.01910, 4.8107e-003
 414.04300, 97.16533, 4.8175e-003
 414.54300, 97.31176, 4.8242e-003
 415.04300, 97.45851, 4.8307e-003
 415.54300, 97.60568, 4.8373e-003
 416.04300, 97.75319, 4.8442e-003
 416.54300, 97.90056, 4.8511e-003
 417.04300, 98.04808, 4.8580e-003
 417.54300, 98.19560, 4.8642e-003
 418.04300, 98.34305, 4.8706e-003
 418.54300, 98.49051, 4.8773e-003
 419.04300, 98.63807, 4.8839e-003
 419.54300, 98.78515, 4.8910e-003
 420.04300, 98.93275, 4.8982e-003
 420.54300, 99.08041, 4.9051e-003
 421.04300, 99.22813, 4.9114e-003
 421.54300, 99.37588, 4.9177e-003
 422.04300, 99.52365, 4.9247e-003
 422.54300, 99.67119, 4.9313e-003
 423.04300, 99.81898, 4.9389e-003
 423.54300, 99.96676, 4.9461e-003
 424.04300,100.11492, 4.9527e-003
 424.54300,100.26362, 4.9592e-003
 425.04300,100.41260, 4.9658e-003
 425.54300,100.56174, 4.9724e-003
 426.04300,100.71110, 4.9804e-003
 426.54300,100.86031, 4.9870e-003
 427.04300,101.00986, 4.9942e-003
 427.54300,101.15941, 5.0012e-003
 428.04300,101.30977, 5.0076e-003
 428.54300,101.46024, 5.0144e-003
 429.04300,101.61102, 5.0211e-003
 429.54300,101.76133, 5.0279e-003
 430.04300,101.91134, 5.0354e-003
 430.54300,102.06089, 5.0422e-003
 431.04300,102.21047, 5.0490e-003
 431.54300,102.35991, 5.0556e-003
 432.04300,102.50938, 5.0621e-003
 432.54300,102.65894, 5.0700e-003
 433.04300,102.80867, 5.0770e-003
 433.54300,102.95831, 5.0836e-003
 434.04300,103.10797, 5.0902e-003
 434.54300,103.25750, 5.0971e-003
 435.04300,103.40714, 5.1041e-003
 435.54300,103.55652, 5.1108e-003
 436.04300,103.70612, 5.1184e-003
 436.54300,103.85607, 5.1252e-003
 437.04300,104.00693, 5.1320e-003
 437.54300,104.15775, 5.1383e-003
 438.04300,104.30885, 5.1450e-003
 438.54300,104.46000, 5.1520e-003
 439.04300,104.61140, 5.1588e-003
 439.54300,104.76258, 5.1667e-003
 440.04300,104.91417, 5.1735e-003
 440.54300,105.06589, 5.1802e-003
 441.04300,105.21761, 5.1872e-003
 441.54300,105.36924, 5.1939e-003
 442.04300,105.52072, 5.2008e-003
 442.54300,105.67255, 5.2089e-003
 443.04300,105.82425, 5.2153e-003
 443.54300,105.97608, 5.2221e-003
 444.04300,106.12785, 5.2288e-003
 444.54300,106.27928, 5.2356e-003
 445.04300,106.43112, 5.2436e-003
 445.54300,106.58301, 5.2501e-003
 446.04300,106.73476, 5.2568e-003
 446.54300,106.88700, 5.2638e-003
 447.04300,107.03963, 5.2714e-003
 447.54300,107.19209, 5.2780e-003
 448.04300,107.34485, 5.2846e-003
 448.54300,107.49770, 5.2912e-003
 449.04300,107.65034, 5.2988e-003
 449.54300,107.80312, 5.3058e-003
 450.04300,107.95602, 5.3124e-003
 450.54300,108.10898, 5.3191e-003
 451.04300,108.26173, 5.3255e-003
 451.54300,108.41440, 5.3337e-003
 452.04300,108.56673, 5.3405e-003
 452.54300,108.71954, 5.3474e-003
 453.04300,108.87270, 5.3538e-003
 453.54300,109.02669, 5.3606e-003
 454.04300,109.18072, 5.3675e-003
 454.54300,109.33485, 5.3744e-003
 455.04300,109.48875, 5.3818e-003
 455.54300,109.64210, 5.3897e-003
 456.04300,109.79548, 5.3970e-003
 456.54300,109.94921, 5.4040e-003
 457.04300,110.10330, 5.4109e-003
 457.54300,110.25811, 5.4182e-003
 458.04300,110.41362, 5.4252e-003
 458.54300,110.56961, 5.4322e-003
 459.04300,110.72624, 5.4393e-003
 459.54300,110.88306, 5.4484e-003
 460.04300,111.04029, 5.4553e-003
 460.54300,111.19783, 5.4630e-003
 461.04300,111.35511, 5.4698e-003
 461.54300,111.51283, 5.4768e-003
 462.04300,111.67060, 5.4849e-003
 462.54300,111.82811, 5.4919e-003
 463.04300,111.98553, 5.4990e-003
 463.54300,112.14292, 5.5055e-003
 464.04300,112.29969, 5.5126e-003
 464.54300,112.45637, 5.5189e-003
 465.04300,112.61218, 5.5269e-003
 465.54300,112.76742, 5.5335e-003
 466.04300,112.92155, 5.5399e-003
 466.54300,113.07467, 5.5462e-003
 467.04300,113.22700, 5.5522e-003
 467.54300,113.37847, 5.5584e-003
 468.04300,113.52964, 5.5660e-003
 468.54300,113.68026, 5.5727e-003
 469.04300,113.83032, 5.5782e-003
 469.54300,113.97966, 5.5846e-003
 470.04300,114.12938, 5.5911e-003
 470.54300,114.27860, 5.5970e-003
 471.04300,114.42791, 5.6034e-003
 471.54300,114.57730, 5.6108e-003
 472.04300,114.72675, 5.6172e-003
 472.54300,114.87575, 5.6234e-003
 473.04300,115.02471, 5.6302e-003
 473.54300,115.17345, 5.6377e-003
 474.04300,115.32206, 5.6441e-003
 474.54300,115.47146, 5.6507e-003
 475.04300,115.62089, 5.6571e-003
 475.54300,115.77097, 5.6638e-003
 476.04300,115.92106, 5.6710e-003
 476.54300,116.07202, 5.6776e-003
 477.04300,116.22355, 5.6844e-003
 477.54300,116.37581, 5.6907e-003
 478.04300,116.52839, 5.6982e-003
 478.54300,116.68156, 5.7051e-003
 479.04300,116.83478, 5.7114e-003
 479.54300,116.98762, 5.7180e-003
 480.04300,117.14024, 5.7256e-003
 480.54300,117.29311, 5.7322e-003
 481.04300,117.44602, 5.7389e-003
 481.54300,117.59917, 5.7452e-003
 482.04300,117.75298, 5.7528e-003
 482.54300,117.90726, 5.7597e-003
 483.04300,118.06202, 5.7662e-003
 483.54300,118.21675, 5.7728e-003
 484.04300,118.37202, 5.7794e-003
 484.54300,118.52718, 5.7876e-003
 485.04300,118.68294, 5.7947e-003
 485.54300,118.83877, 5.8011e-003
 486.04300,118.99544, 5.8075e-003
 486.54300,119.15204, 5.8142e-003
 487.04300,119.30907, 5.8218e-003
 487.54300,119.46623, 5.8283e-003
 488.04300,119.62332, 5.8350e-003
 488.54300,119.78069, 5.8419e-003
 489.04300,119.93843, 5.8485e-003
 489.54300,120.09628, 5.8566e-003
 490.04300,120.25446, 5.8630e-003
 490.54300,120.41273, 5.8699e-003
 491.04300,120.57096, 5.8765e-003
 491.54300,120.72936, 5.8833e-003
 492.04300,120.88768, 5.8908e-003
 492.54300,121.04589, 5.8978e-003
 493.04300,121.20421, 5.9039e-003
 493.54300,121.36223, 5.9109e-003
 494.04300,121.52058, 5.9174e-003
 494.54300,121.67963, 5.9240e-003
 495.04300,121.83878, 5.9320e-003
 495.54300,121.99880, 5.9387e-003
 496.04300,122.15869, 5.9456e-003
 496.54300,122.31879, 5.9533e-003
 497.04300,122.47879, 5.9600e-003
 497.54300,122.63881, 5.9663e-003
 498.04300,122.79934, 5.9730e-003
 498.54300,122.96034, 5.9799e-003
 499.04300,123.12097, 5.9862e-003
 499.54300,123.28186, 5.9939e-003
 500.04300,123.44322, 6.0011e-003
 500.54300,123.60400, 6.0076e-003
 501.04300,123.76511, 6.0154e-003
 501.54300,123.92640, 6.0221e-003
 502.04300,124.08720, 6.0285e-003
 502.54300,124.24847, 6.0356e-003
 503.04300,124.41011, 6.0418e-003
 503.54300,124.57192, 6.0483e-003
 504.04300,124.73424, 6.0566e-003
 504.54300,124.89664, 6.0632e-003
 505.04300,125.05870, 6.0697e-003
 505.54300,125.22072, 6.0764e-003
 506.04300,125.38240, 6.0829e-003
 506.54300,125.54405, 6.0898e-003
 507.04300,125.70593, 6.0976e-003
 507.54300,125.86806, 6.1042e-003
 508.04300,126.03040, 6.1107e-003
 508.54300,126.19293, 6.1185e-003
 509.04300,126.35552, 6.1251e-003
 509.54300,126.51844, 6.1322e-003
 510.04300,126.68180, 6.1389e-003
 510.54300,126.84547, 6.1457e-003
 511.04300,127.00946, 6.1524e-003
 511.54300,127.17335, 6.1602e-003
 512.04300,127.33671, 6.1671e-003
 512.54300,127.49973, 6.1737e-003
 513.04300,127.66252, 6.1806e-003
 513.54300,127.82565, 6.1871e-003
 514.04300,127.98893, 6.1936e-003
 514.54300,128.15222, 6.2011e-003
 515.04300,128.31574, 6.2082e-003
 515.54300,128.47919, 6.2150e-003
 516.04300,128.64309, 6.2212e-003
 516.54300,128.80732, 6.2294e-003
 517.04300,128.97216, 6.2360e-003
 517.54300,129.13702, 6.2426e-003
 518.04300,129.30179, 6.2500e-003
 518.54300,129.46577, 6.2567e-003
 519.04300,129.62950, 6.2632e-003
 519.54300,129.79294, 6.2700e-003
 520.04300,129.95667, 6.2778e-003
 520.54300,130.12110, 6.2844e-003
 521.04300,130.28587, 6.2911e-003
 521.54300,130.45063, 6.2980e-003
 522.04300,130.61518, 6.3046e-003
 522.54300,130.77928, 6.3124e-003
 523.04300,130.94340, 6.3192e-003
 523.54300,131.10782, 6.3262e-003
 524.04300,131.27257, 6.3331e-003
 524.54300,131.43700, 6.3397e-003
 525.04300,131.60131, 6.3473e-003
 525.54300,131.76597, 6.3542e-003
 526.04300,131.93053, 6.3604e-003
 526.54300,132.09532, 6.3684e-003
 527.04300,132.25992, 6.3749e-003
 527.54300,132.42441, 6.3820e-003
 528.04300,132.58861, 6.3889e-003
 528.54300,132.75288, 6.3966e-003
 529.04300,132.91776, 6.4035e-003
 529.54300,133.08297, 6.4100e-003
 530.04300,133.24858, 6.4169e-003
 530.54300,133.41478, 6.4248e-003
 531.04300,133.58116, 6.4318e-003
 531.54300,133.74703, 6.4383e-003
 532.04300,133.91310, 6.4456e-003
 532.54300,134.07928, 6.4523e-003
 533.04300,134.24533, 6.4588e-003
 533.54300,134.41177, 6.4665e-003
 534.04300,134.57857, 6.4731e-003
 534.54300,134.74508, 6.4797e-003
 535.04300,134.91121, 6.4865e-003
 535.54300,135.07737, 6.4935e-003
 536.04300,135.24370, 6.5012e-003
 536.54300,135.40968, 6.5078e-003
 537.04300,135.57573, 6.5147e-003
 537.54300,135.74209, 6.5223e-003
 538.04300,135.90807, 6.5289e-003
 538.54300,136.07397, 6.5360e-003
 539.04300,136.23972, 6.5422e-003
 539.54300,136.40567, 6.5497e-003
 540.04300,136.57168, 6.5561e-003
 540.54300,136.73814, 6.5643e-003
 541.04300,136.90505, 6.5714e-003
 541.54300,137.07215, 6.5787e-003
 542.04300,137.23913, 6.5860e-003
 542.54300,137.40619, 6.5931e-003
 543.04300,137.57299, 6.6009e-003
 543.54300,137.73930, 6.6078e-003
 544.04300,137.90579, 6.6141e-003
 544.54300,138.07241, 6.6219e-003
 545.04300,138.23953, 6.6293e-003
 545.54300,138.40683, 6.6359e-003
 546.04300,138.57386, 6.6434e-003
 546.54300,138.74066, 6.6503e-003
 547.04300,138.90766, 6.6583e-003
 547.54300,139.07503, 6.6654e-003
 548.04300,139.24305, 6.6720e-003
 548.54300,139.41173, 6.6789e-003
 549.04300,139.58042, 6.6863e-003
 549.54300,139.74901, 6.6933e-003
 550.04300,139.91783, 6.7004e-003
 550.54300,140.08601, 6.7075e-003
 551.04300,140.25420, 6.7144e-003
 551.54300,140.42251, 6.7211e-003
 552.04300,140.59072, 6.7270e-003
 552.54300,140.75938, 6.7349e-003
 553.04300,140.92828, 6.7414e-003
 553.54300,141.09704, 6.7486e-003
 554.04300,141.26600, 6.7542e-003
 554.54300,141.43481, 6.7615e-003
 555.04300,141.60334, 6.7679e-003
 555.54300,141.77178, 6.7756e-003
 556.04300,141.94012, 6.7816e-003
 556.54300,142.10885, 6.7890e-003
 557.04300,142.27788, 6.7960e-003
 557.54300,142.44655, 6.8027e-003
 558.04300,142.61511, 6.8090e-003
 558.54300,142.78330, 6.8169e-003
 559.04300,142.95147, 6.8235e-003
 559.54300,143.12015, 6.8304e-003
 560.04300,143.28940, 6.8371e-003
 560.54300,143.45843, 6.8437e-003
 561.04300,143.62785, 6.8511e-003
 561.54300,143.79739, 6.8579e-003
 562.04300,143.96666, 6.8643e-003
 562.54300,144.13624, 6.8708e-003
 563.04300,144.30580, 6.8777e-003
 563.54300,144.47529, 6.8851e-003
 564.04300,144.64489, 6.8913e-003
 564.54300,144.81478, 6.8981e-003
 565.04300,144.98468, 6.9053e-003
 565.54300,145.15511, 6.9121e-003
 566.04300,145.32579, 6.9186e-003
 566.54300,145.49579, 6.9252e-003
 567.04300,145.66612, 6.9328e-003
 567.54300,145.83633, 6.9391e-003
 568.04300,146.00592, 6.9456e-003
 568.54300,146.17640, 6.9526e-003
 569.04300,146.34676, 6.9595e-003
 569.54300,146.51720, 6.9654e-003
 570.04300,146.68807, 6.9723e-003
 570.54300,146.85874, 6.9792e-003
 571.04300,147.02947, 6.9856e-003
 571.54300,147.20053, 6.9931e-003
 572.04300,147.37142, 6.9998e-003
 572.54300,147.54257, 7.0059e-003
 573.04300,147.71393, 7.0129e-003
 573.54300,147.88497, 7.0201e-003
 574.04300,148.05631, 7.0261e-003
 574.54300,148.22741, 7.0329e-003
 575.04300,148.39860, 7.0394e-003
 575.54300,148.56969, 7.0462e-003
 576.04300,148.74056, 7.0528e-003
 576.54300,148.91159, 7.0594e-003
 577.04300,149.08268, 7.0658e-003
 577.54300,149.25409, 7.0730e-003
 578.04300,149.42560, 7.0798e-003
 578.54300,149.59766, 7.0876e-003
 579.04300,149.76985, 7.0944e-003
 579.54300,149.94244, 7.1016e-003
 580.04300,150.11659, 7.1090e-003
 580.54300,150.29129, 7.1157e-003
 581.04300,150.46663, 7.1228e-003
 581.54300,150.64209, 7.1304e-003
 582.04300,150.81734, 7.1378e-003
 582.54300,150.99317, 7.1445e-003
 583.04300,151.16955, 7.1529e-003
 583.54300,151.34674, 7.1600e-003
 584.04300,151.52437, 7.1670e-003
 584.54300,151.70157, 7.1744e-003
 585.04300,151.87860, 7.1811e-003
 585.54300,152.05537, 7.1886e-003
 586.04300,152.23176, 7.1949e-003
 586.54300,152.40761, 7.2015e-003
 587.04300,152.58288, 7.2077e-003
 587.54300,152.75657, 7.2154e-003
 588.04300,152.92928, 7.2218e-003
 588.54300,153.10065, 7.2281e-003
 589.04300,153.27087, 7.2343e-003
 589.54300,153.44060, 7.2405e-003
 590.04300,153.60895, 7.2464e-003
 590.54300,153.77697, 7.2525e-003
 591.04300,153.94417, 7.2584e-003
 591.54300,154.11140, 7.2647e-003
 592.04300,154.27806, 7.2710e-003
 592.54300,154.44439, 7.2773e-003
 593.04300,154.61043, 7.2836e-003
 593.54300,154.77595, 7.2907e-003
 594.04300,154.94159, 7.2971e-003
 594.54300,155.10775, 7.3034e-003
 595.04300,155.27381, 7.3097e-003
 595.54300,155.44038, 7.3166e-003
 596.04300,155.60768, 7.3235e-003
 596.54300,155.77492, 7.3297e-003
 597.04300,155.94274, 7.3360e-003
 597.54300,156.11078, 7.3431e-003
 598.04300,156.27895, 7.3495e-003
 598.54300,156.44773, 7.3560e-003
 599.04300,156.61677, 7.3624e-003
 599.54300,156.78629, 7.3701e-003
 600.04300,156.95630, 7.3770e-003
 600.54300,157.12689, 7.3839e-003
 601.04300,157.29765, 7.3903e-003
 601.54300,157.46858, 7.3974e-003
 602.04300,157.63972, 7.4050e-003
 602.54300,157.81118, 7.4113e-003
 603.04300,157.98281, 7.4173e-003
 603.54300,158.15509, 7.4254e-003
 604.04300,158.32735, 7.4319e-003
 604.54300,158.49967, 7.4386e-003
 605.04300,158.67243, 7.4447e-003
 605.54300,158.84476, 7.4525e-003
 606.04300,159.01744, 7.4589e-003
 606.54300,159.19016, 7.4652e-003
 607.04300,159.36329, 7.4717e-003
 607.54300,159.53651, 7.4788e-003
 608.04300,159.70991, 7.4855e-003
 608.54300,159.88362, 7.4922e-003
 609.04300,160.05736, 7.4991e-003
 609.54300,160.23151, 7.5064e-003
 610.04300,160.40597, 7.5129e-003
 610.54300,160.58040, 7.5198e-003
 611.04300,160.75510, 7.5262e-003
 611.54300,160.92979, 7.5332e-003
 612.04300,161.10456, 7.5402e-003
 612.54300,161.27954, 7.5465e-003
 613.04300,161.45454, 7.5534e-003
 613.54300,161.62971, 7.5607e-003
 614.04300,161.80480, 7.5676e-003
 614.54300,161.98014, 7.5738e-003
 615.04300,162.15549, 7.5800e-003
 615.54300,162.33085, 7.5867e-003
 616.04300,162.50671, 7.5936e-003
 616.54300,162.68267, 7.6000e-003
 617.04300,162.85889, 7.6075e-003
 617.54300,163.03531, 7.6140e-003
 618.04300,163.21169, 7.6218e-003
 618.54300,163.38843, 7.6282e-003
 619.04300,163.56528, 7.6347e-003
 619.54300,163.74226, 7.6410e-003
 620.04300,163.91943, 7.6477e-003
 620.54300,164.09645, 7.6540e-003
 621.04300,164.27366, 7.6608e-003
 621.54300,164.45100, 7.6693e-003
 622.04300,164.62834, 7.6757e-003
 622.54300,164.80562, 7.6822e-003
 623.04300,164.98301, 7.6888e-003
 623.54300,165.16060, 7.6966e-003
 624.04300,165.33841, 7.7033e-003
 624.54300,165.51664, 7.7096e-003
 625.04300,165.69525, 7.7162e-003
 625.54300,165.87432, 7.7229e-003
 626.04300,166.05343, 7.7302e-003
 626.54300,166.23234, 7.7370e-003
 627.04300,166.41091, 7.7436e-003
 627.54300,166.58899, 7.7506e-003
 628.04300,166.76719, 7.7570e-003
 628.54300,166.94531, 7.7631e-003
 629.04300,167.12341, 7.7709e-003
 629.54300,167.30174, 7.7778e-003
 630.04300,167.48048, 7.7844e-003
 630.54300,167.65941, 7.7907e-003
 631.04300,167.83825, 7.7986e-003
 631.54300,168.01686, 7.8050e-003
 632.04300,168.19525, 7.8116e-003
 632.54300,168.37399, 7.8193e-003
 633.04300,168.55305, 7.8260e-003
 633.54300,168.73224, 7.8323e-003
 634.04300,168.91125, 7.8399e-003
 634.54300,169.09014, 7.8467e-003
 635.04300,169.26868, 7.8526e-003
 635.54300,169.44727, 7.8591e-003
 636.04300,169.62613, 7.8669e-003
 636.54300,169.80508, 7.8733e-003
 637.04300,169.98510, 7.8805e-003
 637.54300,170.16484, 7.8871e-003
 638.04300,170.34431, 7.8936e-003
 638.54300,170.52374, 7.9006e-003
 639.04300,170.70256, 7.9075e-003
 639.54300,170.88229, 7.9140e-003
 640.04300,171.06253, 7.9206e-003
 640.54300,171.24318, 7.9282e-003
 641.04300,171.42372, 7.9346e-003
 641.54300,171.60406, 7.9411e-003
 642.04300,171.78388, 7.9481e-003
 642.54300,171.96379, 7.9551e-003
 643.04300,172.14373, 7.9617e-003
 643.54300,172.32370, 7.9681e-003
 644.04300,172.50397, 7.9742e-003
 644.54300,172.68399, 7.9815e-003
 645.04300,172.86390, 7.9886e-003
 645.54300,173.04357, 7.9949e-003
 646.04300,173.22352, 8.0014e-003
 646.54300,173.40435, 8.0088e-003
 647.04300,173.58582, 8.0152e-003
 647.54300,173.76794, 8.0225e-003
 648.04300,173.94975, 8.0287e-003
 648.54300,174.13047, 8.0354e-003
 649.04300,174.31115, 8.0426e-003
 649.54300,174.49161, 8.0488e-003
 650.04300,174.67216, 8.0552e-003
 650.54300,174.85309, 8.0615e-003
 651.04300,175.03384, 8.0684e-003
 651.54300,175.21453, 8.0756e-003
 652.04300,175.39538, 8.0820e-003
 652.54300,175.57620, 8.0889e-003
 653.04300,175.75726, 8.0955e-003
 653.54300,175.93784, 8.1018e-003
 654.04300,176.11846, 8.1084e-003
 654.54300,176.29894, 8.1147e-003
 655.04300,176.47937, 8.1212e-003
 655.54300,176.66056, 8.1274e-003
 656.04300,176.84208, 8.1340e-003
 656.54300,177.02392, 8.1406e-003
 657.04300,177.20586, 8.1470e-003
 657.54300,177.38809, 8.1534e-003
 658.04300,177.57012, 8.1610e-003
 658.54300,177.75196, 8.1680e-003
 659.04300,177.93379, 8.1746e-003
 659.54300,178.11536, 8.1805e-003
 660.04300,178.29702, 8.1870e-003
 660.54300,178.47877, 8.1941e-003
 661.04300,178.66070, 8.2006e-003
 661.54300,178.84271, 8.2069e-003
 662.04300,179.02471, 8.2145e-003
 662.54300,179.20716, 8.2207e-003
 663.04300,179.38969, 8.2274e-003
 663.54300,179.57199, 8.2335e-003
 664.04300,179.75419, 8.2399e-003
 664.54300,179.93625, 8.2473e-003
 665.04300,180.11821, 8.2540e-003
 665.54300,180.30010, 8.2599e-003
 666.04300,180.48220, 8.2666e-003
 666.54300,180.66460, 8.2743e-003
 667.04300,180.84752, 8.2804e-003
 667.54300,181.03099, 8.2866e-003
 668.04300,181.21409, 8.2928e-003
 668.54300,181.39736, 8.2999e-003
 669.04300,181.58097, 8.3069e-003
 669.54300,181.76486, 8.3138e-003
 670.04300,181.94921, 8.3203e-003
 670.54300,182.13344, 8.3269e-003
 671.04300,182.31721, 8.3333e-003
 671.54300,182.50175, 8.3399e-003
 672.04300,182.68648, 8.3462e-003
 672.54300,182.87163, 8.3541e-003
 673.04300,183.05763, 8.3607e-003
 673.54300,183.24344, 8.3674e-003
 674.04300,183.43012, 8.3744e-003
 674.54300,183.61613, 8.3817e-003
 675.04300,183.80231, 8.3894e-003
 675.54300,183.98942, 8.3959e-003
 676.04300,184.17716, 8.4031e-003
 676.54300,184.36631, 8.4096e-003
 677.04300,184.55639, 8.4177e-003
 677.54300,184.74674, 8.4246e-003
 678.04300,184.93770, 8.4315e-003
 678.54300,185.12873, 8.4390e-003
 679.04300,185.31955, 8.4457e-003
 679.54300,185.51017, 8.4533e-003
 680.04300,185.70112, 8.4595e-003
 680.54300,185.89085, 8.4657e-003
 681.04300,186.07944, 8.4720e-003
 681.54300,186.26664, 8.4795e-003
 682.04300,186.45219, 8.4863e-003
 682.54300,186.63753, 8.4924e-003
 683.04300,186.82212, 8.4984e-003
 683.54300,187.00614, 8.5042e-003
 684.04300,187.19012, 8.5104e-003
 684.54300,187.37288, 8.5174e-003
 685.04300,187.55508, 8.5236e-003
 685.54300,187.73648, 8.5295e-003
 686.04300,187.91676, 8.5354e-003
 686.54300,188.09729, 8.5423e-003
 687.04300,188.27772, 8.5485e-003
 687.54300,188.45829, 8.5547e-003
 688.04300,188.63928, 8.5611e-003
 688.54300,188.82096, 8.5676e-003
 689.04300,189.00287, 8.5747e-003
 689.54300,189.18551, 8.5816e-003
 690.04300,189.36866, 8.5880e-003
 690.54300,189.55204, 8.5943e-003
 691.04300,189.73639, 8.6012e-003
 691.54300,189.92062, 8.6075e-003
 692.04300,190.10518, 8.6135e-003
 692.54300,190.29013, 8.6197e-003
 693.04300,190.47507, 8.6262e-003
 693.54300,190.66027, 8.6336e-003
 694.04300,190.84580, 8.6402e-003
 694.54300,191.03127, 8.6465e-003
 695.04300,191.21707, 8.6529e-003
 695.54300,191.40375, 8.6600e-003
 696.04300,191.59042, 8.6662e-003
 696.54300,191.77756, 8.6733e-003
 697.04300,191.96451, 8.6798e-003
 697.54300,192.15150, 8.6858e-003
 698.04300,192.33880, 8.6918e-003
 698.54300,192.52609, 8.6989e-003
 699.04300,192.71373, 8.7053e-003
 699.54300,192.90121, 8.7115e-003
 700.04300,193.08892, 8.7183e-003
 700.54300,193.27726, 8.7252e-003
 701.04300,193.46567, 8.7311e-003
 701.54300,193.65454, 8.7376e-003
 702.04300,193.84330, 8.7442e-003
 702.54300,194.03188, 8.7507e-003
 703.04300,194.22058, 8.7575e-003
 703.54300,194.40929, 8.7634e-003
 704.04300,194.59804, 8.7705e-003
 704.54300,194.78680, 8.7768e-003
 705.04300,194.97558, 8.7830e-003
 705.54300,195.16450, 8.7895e-003
 706.04300,195.35368, 8.7954e-003
 706.54300,195.54262, 8.8022e-003
 707.04300,195.73146, 8.8082e-003
 707.54300,195.92039, 8.8142e-003
 708.04300,196.10980, 8.8217e-003
 708.54300,196.29901, 8.8285e-003
 709.04300,196.48847, 8.8351e-003
 709.54300,196.67769, 8.8411e-003
 710.04300,196.86693, 8.8471e-003
 710.54300,197.05668, 8.8549e-003
 711.04300,197.24655, 8.8611e-003
 711.54300,197.43606, 8.8678e-003
 712.04300,197.62562, 8.8740e-003
 712.54300,197.81517, 8.8808e-003
 713.04300,198.00557, 8.8873e-003
 713.54300,198.19623, 8.8940e-003
 714.04300,198.38686, 8.9006e-003
 714.54300,198.57805, 8.9072e-003
 715.04300,198.76972, 8.9140e-003
 715.54300,198.96204, 8.9208e-003
 716.04300,199.15545, 8.9288e-003
 716.54300,199.34946, 8.9359e-003
 717.04300,199.54448, 8.9433e-003
 717.54300,199.74085, 8.9507e-003
 718.04300,199.93839, 8.9580e-003
 718.54300,200.13655, 8.9659e-003
 719.04300,200.33492, 8.9729e-003
 719.54300,200.53300, 8.9800e-003
 720.04300,200.73034, 8.9865e-003
 720.54300,200.92734, 8.9937e-003
 721.04300,201.12306, 9.0006e-003
 721.54300,201.31815, 9.0068e-003
 722.04300,201.51151, 9.0130e-003
 722.54300,201.70313, 9.0196e-003
 723.04300,201.89396, 9.0271e-003
 723.54300,202.08320, 9.0330e-003
 724.04300,202.27168, 9.0389e-003
 724.54300,202.45907, 9.0458e-003
 725.04300,202.64565, 9.0516e-003
 725.54300,202.83193, 9.0589e-003
 726.04300,203.01765, 9.0653e-003
 726.54300,203.20311, 9.0716e-003
 727.04300,203.38783, 9.0777e-003
 727.54300,203.57246, 9.0849e-003
 728.04300,203.75751, 9.0914e-003
 728.54300,203.94280, 9.0972e-003
 729.04300,204.12844, 9.1036e-003
 729.54300,204.31418, 9.1098e-003
 730.04300,204.49995, 9.1167e-003
 730.54300,204.68570, 9.1236e-003
 731.04300,204.87176, 9.1302e-003
 731.54300,205.05848, 9.1368e-003
 732.04300,205.24553, 9.1439e-003
 732.54300,205.43330, 9.1497e-003
 733.04300,205.62166, 9.1559e-003
 733.54300,205.80998, 9.1631e-003
 734.04300,205.99794, 9.1696e-003
 734.54300,206.18576, 9.1765e-003
 735.04300,206.37272, 9.1830e-003
 735.54300,206.56025, 9.1896e-003
 736.04300,206.74811, 9.1956e-003
 736.54300,206.93568, 9.2031e-003
 737.04300,207.12413, 9.2093e-003
 737.54300,207.31199, 9.2159e-003
 738.04300,207.50023, 9.2226e-003
 738.54300,207.68924, 9.2288e-003
 739.04300,207.87860, 9.2355e-003
 739.54300,208.06839, 9.2427e-003
 740.04300,208.25860, 9.2490e-003
 740.54300,208.44853, 9.2555e-003
 741.04300,208.63890, 9.2627e-003
 741.54300,208.82941, 9.2698e-003
 742.04300,209.02030, 9.2764e-003
 742.54300,209.21150, 9.2825e-003
 743.04300,209.40212, 9.2894e-003
 743.54300,209.59274, 9.2967e-003
 744.04300,209.78244, 9.3035e-003
 744.54300,209.97280, 9.3098e-003
 745.04300,210.16358, 9.3165e-003
 745.54300,210.35555, 9.3227e-003
 746.04300,210.54774, 9.3295e-003
 746.54300,210.73958, 9.3358e-003
 747.04300,210.93086, 9.3426e-003
 747.54300,211.12201, 9.3490e-003
 748.04300,211.31334, 9.3560e-003
 748.54300,211.50556, 9.3625e-003
 749.04300,211.69848, 9.3690e-003
 749.54300,211.89115, 9.3746e-003
 750.04300,212.08412, 9.3826e-003
 750.54300,212.27703, 9.3892e-003
 751.04300,212.46985, 9.3957e-003
 751.54300,212.66295, 9.4017e-003
 752.04300,212.85564, 9.4091e-003
 752.54300,213.04820, 9.4160e-003
 753.04300,213.24040, 9.4223e-003
 753.54300,213.43226, 9.4287e-003
 754.04300,213.62446, 9.4352e-003
 754.54300,213.81683, 9.4417e-003
 755.04300,214.00970, 9.4483e-003
 755.54300,214.20252, 9.4561e-003
 756.04300,214.39571, 9.4623e-003
 756.54300,214.58861, 9.4694e-003
 757.04300,214.78079, 9.4756e-003
 757.54300,214.97342, 9.4826e-003
 758.04300,215.16669, 9.4893e-003
 758.54300,215.36028, 9.4955e-003
 759.04300,215.55381, 9.5024e-003
 759.54300,215.74723, 9.5087e-003
 760.04300,215.94012, 9.5153e-003
 760.54300,216.13305, 9.5215e-003
 761.04300,216.32651, 9.5291e-003
 761.54300,216.51962, 9.5353e-003
 762.04300,216.71260, 9.5425e-003
 762.54300,216.90572, 9.5486e-003
 763.04300,217.09866, 9.5551e-003
 763.54300,217.29160, 9.5613e-003
 764.04300,217.48450, 9.5684e-003
 764.54300,217.67713, 9.5755e-003
 765.04300,217.86969, 9.5820e-003
 765.54300,218.06241, 9.5882e-003
 766.04300,218.25551, 9.5951e-003
 766.54300,218.44914, 9.6018e-003
 767.04300,218.64291, 9.6082e-003
 767.54300,218.83668, 9.6145e-003
 768.04300,219.03085, 9.6207e-003
 768.54300,219.22476, 9.6284e-003
 769.04300,219.41861, 9.6344e-003
 769.54300,219.61276, 9.6415e-003
 770.04300,219.80695, 9.6479e-003
 770.54300,220.00152, 9.6544e-003
 771.04300,220.19603, 9.6616e-003
 771.54300,220.39046, 9.6677e-003
 772.04300,220.58425, 9.6748e-003
 772.54300,220.77810, 9.6814e-003
 773.04300,220.97165, 9.6877e-003
 773.54300,221.16525, 9.6945e-003
 774.04300,221.35861, 9.7013e-003
 774.54300,221.55111, 9.7074e-003
 775.04300,221.74436, 9.7138e-003
 775.54300,221.93786, 9.7202e-003
 776.04300,222.13080, 9.7264e-003
 776.54300,222.32430, 9.7339e-003
 777.04300,222.51726, 9.7404e-003
 777.54300,222.71062, 9.7467e-003
 778.04300,222.90501, 9.7530e-003
 778.54300,223.09898, 9.7595e-003
 779.04300,223.29293, 9.7664e-003
 779.54300,223.48737, 9.7726e-003
 780.04300,223.68167, 9.7788e-003
 780.54300,223.87616, 9.7852e-003
 781.04300,224.07079, 9.7932e-003
 781.54300,224.26666, 9.7998e-003
 782.04300,224.46463, 9.8065e-003
 782.54300,224.66583, 9.8142e-003
 783.04300,224.87046, 9.8211e-003
 783.54300,225.07960, 9.8286e-003
 784.04300,225.29185, 9.8363e-003
 784.54300,225.50727, 9.8433e-003
 785.04300,225.72475, 9.8518e-003
 785.54300,225.94404, 9.8586e-003
 786.04300,226.16338, 9.8662e-003
 786.54300,226.38300, 9.8729e-003
 787.04300,226.60252, 9.8804e-003
 787.54300,226.82337, 9.8879e-003
 788.04300,227.04449, 9.8948e-003
 788.54300,227.26624, 9.9019e-003
 789.04300,227.48790, 9.9084e-003
 789.54300,227.70857, 9.9150e-003
 790.04300,227.92664, 9.9216e-003
 790.54300,228.14142, 9.9279e-003
 791.04300,228.35178, 9.9337e-003
 791.54300,228.55831, 9.9396e-003
 792.04300,228.76151, 9.9458e-003
 792.54300,228.96330, 9.9512e-003
 793.04300,229.16361, 9.9586e-003
 793.54300,229.36413, 9.9650e-003
 794.04300,229.56414, 9.9713e-003
 794.54300,229.76496, 9.9778e-003
 795.04300,229.96679, 9.9841e-003
 795.54300,230.16999, 9.9916e-003
 796.04300,230.37514, 9.9982e-003
 796.54300,230.58183, 1.0005e-002
 797.04300,230.79020, 1.0011e-002
 797.54300,231.00050, 1.0018e-002
 798.04300,231.21161, 1.0025e-002
 798.54300,231.42397, 1.0031e-002
 799.04300,231.63636, 1.0038e-002
 799.54300,231.84867, 1.0045e-002
 800.04300,232.06071, 1.0051e-002
 800.54300,232.27208, 1.0057e-002
 801.04300,232.48327, 1.0063e-002
 801.54300,232.69406, 1.0069e-002
 802.04300,232.90528, 1.0075e-002
 802.54300,233.11582, 1.0081e-002
 803.04300,233.32616, 1.0088e-002
 803.54300,233.53637, 1.0094e-002
 804.04300,233.74662, 1.0101e-002
 804.54300,233.95669, 1.0107e-002
 805.04300,234.16606, 1.0114e-002
 805.54300,234.37523, 1.0120e-002
 806.04300,234.58538, 1.0127e-002
 806.54300,234.79639, 1.0133e-002
 807.04300,235.00763, 1.0138e-002
 807.54300,235.21797, 1.0145e-002
 808.04300,235.42717, 1.0150e-002
 808.54300,235.63478, 1.0156e-002
 809.04300,235.84080, 1.0162e-002
 809.54300,236.04559, 1.0168e-002
 810.04300,236.24899, 1.0174e-002
 810.54300,236.45142, 1.0179e-002
 811.04300,236.65337, 1.0186e-002
 811.54300,236.85413, 1.0192e-002
 812.04300,237.05403, 1.0198e-002
 812.54300,237.25383, 1.0204e-002
 813.04300,237.45331, 1.0210e-002
 813.54300,237.65263, 1.0216e-002
 814.04300,237.85213, 1.0222e-002
 814.54300,238.05192, 1.0228e-002
 815.04300,238.25281, 1.0235e-002
 815.54300,238.45417, 1.0241e-002
 816.04300,238.65630, 1.0248e-002
 816.54300,238.85781, 1.0254e-002
 817.04300,239.05928, 1.0260e-002
 817.54300,239.26121, 1.0266e-002
 818.04300,239.46271, 1.0272e-002
 818.54300,239.66458, 1.0278e-002
 819.04300,239.86628, 1.0284e-002
 819.54300,240.06781, 1.0290e-002
 820.04300,240.26957, 1.0296e-002
 820.54300,240.47132, 1.0303e-002
 821.04300,240.67288, 1.0309e-002
 821.54300,240.87374, 1.0314e-002
 822.04300,241.07423, 1.0320e-002
 822.54300,241.27349, 1.0326e-002
 823.04300,241.47210, 1.0332e-002
 823.54300,241.66946, 1.0339e-002
 824.04300,241.86583, 1.0346e-002
 824.54300,242.06227, 1.0352e-002
 825.04300,242.25823, 1.0357e-002
 825.54300,242.45429, 1.0364e-002
 826.04300,242.65008, 1.0370e-002
 826.54300,242.84557, 1.0376e-002
 827.04300,243.04144, 1.0382e-002
 827.54300,243.23792, 1.0388e-002
 828.04300,243.43465, 1.0394e-002
 828.54300,243.63181, 1.0402e-002
 829.04300,243.82826, 1.0407e-002
 829.54300,244.02403, 1.0414e-002
 830.04300,244.21885, 1.0419e-002
 830.54300,244.41310, 1.0426e-002
 831.04300,244.60636, 1.0432e-002
 831.54300,244.79961, 1.0438e-002
 832.04300,244.99275, 1.0444e-002
 832.54300,245.18605, 1.0450e-002
 833.04300,245.38017, 1.0458e-002
 833.54300,245.57444, 1.0464e-002
 834.04300,245.76914, 1.0470e-002
 834.54300,245.96402, 1.0476e-002
 835.04300,246.15866, 1.0482e-002
 835.54300,246.35332, 1.0489e-002
 836.04300,246.54785, 1.0494e-002
 836.54300,246.74188, 1.0500e-002
 837.04300,246.93536, 1.0506e-002
 837.54300,247.12742, 1.0513e-002
 838.04300,247.31900, 1.0519e-002
 838.54300,247.51048, 1.0526e-002
 839.04300,247.70245, 1.0532e-002
 839.54300,247.89556, 1.0539e-002
 840.04300,248.08913, 1.0545e-002
 840.54300,248.28213, 1.0551e-002
 841.04300,248.47531, 1.0557e-002
 841.54300,248.66805, 1.0564e-002
 842.04300,248.86144, 1.0571e-002
 842.54300,249.05604, 1.0578e-002
 843.04300,249.25106, 1.0584e-002
 843.54300,249.44716, 1.0591e-002
 844.04300,249.64256, 1.0597e-002
 844.54300,249.83672, 1.0603e-002
 845.04300,250.02960, 1.0610e-002
 845.54300,250.22218, 1.0615e-002
 846.04300,250.41538, 1.0624e-002
 846.54300,250.61006, 1.0631e-002
 847.04300,250.80654, 1.0637e-002
 847.54300,251.00508, 1.0644e-002
 848.04300,251.20538, 1.0651e-002
 848.54300,251.40721, 1.0658e-002
 849.04300,251.60963, 1.0665e-002
 849.54300,251.81199, 1.0672e-002
 850.04300,252.01331, 1.0678e-002
 850.54300,252.21348, 1.0685e-002
 851.04300,252.41261, 1.0691e-002
 851.54300,252.61078, 1.0696e-002
 852.04300,252.80702, 1.0703e-002
 852.54300,253.00156, 1.0710e-002
 853.04300,253.19394, 1.0716e-002
 853.54300,253.38515, 1.0722e-002
 854.04300,253.57545, 1.0728e-002
 854.54300,253.76529, 1.0734e-002
 855.04300,253.95507, 1.0740e-002
 855.54300,254.14441, 1.0747e-002
 856.04300,254.33367, 1.0753e-002
 856.54300,254.52284, 1.0759e-002
 857.04300,254.71207, 1.0765e-002
 857.54300,254.90207, 1.0771e-002
 858.04300,255.09237, 1.0777e-002
 858.54300,255.28285, 1.0784e-002
 859.04300,255.47344, 1.0790e-002
 859.54300,255.66289, 1.0795e-002
 860.04300,255.85174, 1.0803e-002
 860.54300,256.04028, 1.0809e-002
 861.04300,256.22837, 1.0815e-002
 861.54300,256.41733, 1.0821e-002
 862.04300,256.60652, 1.0827e-002
 862.54300,256.79589, 1.0833e-002
 863.04300,256.98589, 1.0838e-002
 863.54300,257.17568, 1.0846e-002
 864.04300,257.36594, 1.0852e-002
 864.54300,257.55590, 1.0858e-002
 865.04300,257.74597, 1.0864e-002
 865.54300,257.93636, 1.0870e-002
 866.04300,258.12662, 1.0876e-002
 866.54300,258.31676, 1.0882e-002
 867.04300,258.50671, 1.0889e-002
 867.54300,258.69678, 1.0896e-002
 868.04300,258.88767, 1.0902e-002
 868.54300,259.07907, 1.0908e-002
 869.04300,259.27111, 1.0914e-002
 869.54300,259.46234, 1.0920e-002
 870.04300,259.65316, 1.0927e-002
 870.54300,259.84386, 1.0932e-002
 871.04300,260.03452, 1.0938e-002
 871.54300,260.22574, 1.0944e-002
 872.04300,260.41743, 1.0951e-002
 872.54300,260.60926, 1.0956e-002
 873.04300,260.80190, 1.0963e-002
 873.54300,260.99576, 1.0970e-002
 874.04300,261.18996, 1.0975e-002
 874.54300,261.38499, 1.0982e-002
 875.04300,261.57999, 1.0988e-002
 875.54300,261.77533, 1.0994e-002
 876.04300,261.97073, 1.1000e-002
 876.54300,262.16639, 1.1008e-002
 877.04300,262.36265, 1.1013e-002
 877.54300,262.55869, 1.1020e-002
 878.04300,262.75521, 1.1026e-002
 878.54300,262.95199, 1.1032e-002
 879.04300,263.14915, 1.1038e-002
 879.54300,263.34647, 1.1045e-002
 880.04300,263.54379, 1.1053e-002
 880.54300,263.74117, 1.1059e-002
 881.04300,263.93978, 1.1065e-002
 881.54300,264.13990, 1.1071e-002
 882.04300,264.34153, 1.1077e-002
 882.54300,264.54391, 1.1084e-002
 883.04300,264.74673, 1.1090e-002
 883.54300,264.94907, 1.1096e-002
 884.04300,265.15174, 1.1103e-002
 884.54300,265.35386, 1.1109e-002
 885.04300,265.55497, 1.1115e-002
 885.54300,265.75572, 1.1123e-002
 886.04300,265.95621, 1.1129e-002
 886.54300,266.15673, 1.1135e-002
 887.04300,266.35706, 1.1141e-002
 887.54300,266.55765, 1.1147e-002
 888.04300,266.75765, 1.1153e-002
 888.54300,266.95731, 1.1159e-002
 889.04300,267.15633, 1.1165e-002
 889.54300,267.35400, 1.1171e-002
 890.04300,267.55180, 1.1178e-002
 890.54300,267.74998, 1.1186e-002
 891.04300,267.94858, 1.1193e-002
 891.54300,268.14744, 1.1199e-002
 892.04300,268.34663, 1.1205e-002
 892.54300,268.54585, 1.1211e-002
 893.04300,268.74582, 1.1217e-002
 893.54300,268.94664, 1.1223e-002
 894.04300,269.14774, 1.1232e-002
 894.54300,269.34861, 1.1239e-002
 895.04300,269.54957, 1.1245e-002
 895.54300,269.74973, 1.1251e-002
 896.04300,269.94973, 1.1257e-002
 896.54300,270.14856, 1.1263e-002
 897.04300,270.34663, 1.1270e-002
 897.54300,270.54616, 1.1276e-002
 898.04300,270.74543, 1.1282e-002
 898.54300,270.94648, 1.1290e-002
 899.04300,271.14824, 1.1297e-002
 899.54300,271.35056, 1.1303e-002
 900.04300,271.55471, 1.1310e-002
 900.54300,271.76065, 1.1316e-002
 901.04300,271.96868, 1.1326e-002
 901.54300,272.17895, 1.1332e-002
 902.04300,272.39102, 1.1339e-002
 902.54300,272.60384, 1.1346e-002
 903.04300,272.81693, 1.1352e-002
 903.54300,273.03035, 1.1358e-002
 904.04300,273.24376, 1.1367e-002
 904.54300,273.45749, 1.1374e-002
 905.04300,273.67176, 1.1380e-002
 905.54300,273.88722, 1.1386e-002
 906.04300,274.10410, 1.1393e-002
 906.54300,274.32178, 1.1402e-002
 907.04300,274.53951, 1.1408e-002
 907.54300,274.75753, 1.1414e-002
 908.04300,274.97645, 1.1420e-002
 908.54300,275.19642, 1.1427e-002
 909.04300,275.41814, 1.1433e-002
 909.54300,275.64180, 1.1439e-002
 910.04300,275.87002, 1.1446e-002
 910.54300,276.10510, 1.1456e-002
 911.04300,276.35037, 1.1463e-002
 911.54300,276.60780, 1.1470e-002
 912.04300,276.88075, 1.1479e-002
 912.54300,277.17022, 1.1486e-002
 913.04300,277.46621, 1.1494e-002
 913.54300,277.75277, 1.1500e-002
 914.04300,278.01781, 1.1505e-002
 914.54300,278.25963, 1.1510e-002
 915.04300,278.48265, 1.1514e-002
 915.54300,278.69479, 1.1519e-002
 916.04300,278.89994, 1.1524e-002
 916.54300,279.10178, 1.1533e-002
 917.04300,279.30029, 1.1538e-002
 917.54300,279.49625, 1.1543e-002
 918.04300,279.69083, 1.1548e-002
 918.54300,279.88367, 1.1554e-002
 919.04300,280.07630, 1.1560e-002
 919.54300,280.26883, 1.1565e-002
 920.04300,280.46203, 1.1571e-002
 920.54300,280.65598, 1.1577e-002
 921.04300,280.85101, 1.1585e-002
 921.54300,281.04698, 1.1592e-002
 922.04300,281.24361, 1.1597e-002
 922.54300,281.44072, 1.1603e-002
 923.04300,281.63824, 1.1609e-002
 923.54300,281.83646, 1.1615e-002
 924.04300,282.03518, 1.1623e-002
 924.54300,282.23406, 1.1629e-002
 925.04300,282.43303, 1.1635e-002
 925.54300,282.63231, 1.1640e-002
 926.04300,282.83147, 1.1646e-002
 926.54300,283.03125, 1.1652e-002
 927.04300,283.23064, 1.1660e-002
 927.54300,283.43034, 1.1665e-002
 928.04300,283.62954, 1.1671e-002
 928.54300,283.82865, 1.1677e-002
 929.04300,284.02715, 1.1682e-002
 929.54300,284.22530, 1.1689e-002
 930.04300,284.42373, 1.1697e-002
 930.54300,284.62183, 1.1703e-002
 931.04300,284.82024, 1.1709e-002
 931.54300,285.01895, 1.1714e-002
 932.04300,285.21716, 1.1720e-002
 932.54300,285.41565, 1.1729e-002
 933.04300,285.61367, 1.1735e-002
 933.54300,285.81093, 1.1740e-002
 934.04300,286.00698, 1.1746e-002
 934.54300,286.20178, 1.1752e-002
 935.04300,286.39477, 1.1759e-002
 935.54300,286.58767, 1.1765e-002
 936.04300,286.78009, 1.1770e-002
 936.54300,286.97249, 1.1776e-002
 937.04300,287.16480, 1.1782e-002
 937.54300,287.35693, 1.1788e-002
 938.04300,287.54939, 1.1797e-002
 938.54300,287.74227, 1.1804e-002
 939.04300,287.93559, 1.1810e-002
 939.54300,288.12854, 1.1815e-002
 940.04300,288.32136, 1.1824e-002
 940.54300,288.51348, 1.1830e-002
 941.04300,288.70513, 1.1836e-002
 941.54300,288.89664, 1.1841e-002
 942.04300,289.08703, 1.1847e-002
 942.54300,289.27680, 1.1856e-002
 943.04300,289.46610, 1.1861e-002
 943.54300,289.65542, 1.1867e-002
 944.04300,289.84529, 1.1873e-002
 944.54300,290.03650, 1.1880e-002
 945.04300,290.22832, 1.1885e-002
 945.54300,290.42133, 1.1892e-002
 946.04300,290.61490, 1.1900e-002
 946.54300,290.80890, 1.1906e-002
 947.04300,291.00453, 1.1912e-002
 947.54300,291.20134, 1.1919e-002
 948.04300,291.39942, 1.1925e-002
 948.54300,291.59759, 1.1931e-002
 949.04300,291.79646, 1.1939e-002
 949.54300,291.99514, 1.1945e-002
 950.04300,292.19373, 1.1951e-002
 950.54300,292.39299, 1.1957e-002
 951.04300,292.59054, 1.1964e-002
 951.54300,292.78516, 1.1970e-002
 952.04300,292.97404, 1.1976e-002
 952.54300,293.15689, 1.1981e-002
 953.04300,293.33542, 1.1987e-002
 953.54300,293.51184, 1.1992e-002
 954.04300,293.68818, 1.1998e-002
 954.54300,293.86557, 1.2006e-002
 955.04300,294.04511, 1.2012e-002
 955.54300,294.22789, 1.2018e-002
 956.04300,294.41536, 1.2025e-002
 956.54300,294.60881, 1.2031e-002
 957.04300,294.80765, 1.2040e-002
 957.54300,295.00954, 1.2047e-002
 958.04300,295.21142, 1.2053e-002
 958.54300,295.41124, 1.2058e-002
 959.04300,295.60814, 1.2064e-002
 959.54300,295.80188, 1.2070e-002
 960.04300,295.99305, 1.2075e-002
 960.54300,296.18012, 1.2082e-002
 961.04300,296.36271, 1.2088e-002
 961.54300,296.54024, 1.2093e-002
 962.04300,296.71317, 1.2097e-002
 962.54300,296.88325, 1.2102e-002
 963.04300,297.05203, 1.2109e-002
 963.54300,297.22094, 1.2115e-002
 964.04300,297.39179, 1.2120e-002
 964.54300,297.56601, 1.2126e-002
 965.04300,297.74497, 1.2134e-002
 965.54300,297.92853, 1.2140e-002
 966.04300,298.11600, 1.2147e-002
 966.54300,298.30585, 1.2153e-002
 967.04300,298.49744, 1.2160e-002
 967.54300,298.68934, 1.2165e-002
 968.04300,298.88155, 1.2173e-002
 968.54300,299.07417, 1.2179e-002
 969.04300,299.26697, 1.2185e-002
 969.54300,299.46204, 1.2192e-002
 970.04300,299.65864, 1.2199e-002
 970.54300,299.85722, 1.2205e-002
 971.04300,300.05653, 1.2211e-002
 971.54300,300.25365, 1.2218e-002
 972.04300,300.44675, 1.2223e-002
 972.54300,300.63330, 1.2228e-002
 973.04300,300.81327, 1.2234e-002
 973.54300,300.98750, 1.2239e-002
 974.04300,301.15782, 1.2244e-002
 974.54300,301.32673, 1.2250e-002
 975.04300,301.49569, 1.2257e-002
 975.54300,301.66680, 1.2262e-002
 976.04300,301.84086, 1.2269e-002
 976.54300,302.01846, 1.2275e-002
 977.04300,302.20009, 1.2283e-002
 977.54300,302.38463, 1.2289e-002
 978.04300,302.57149, 1.2295e-002
 978.54300,302.75949, 1.2302e-002
 979.04300,302.94738, 1.2307e-002
 979.54300,303.13610, 1.2313e-002
 980.04300,303.32444, 1.2319e-002
 980.54300,303.51124, 1.2325e-002
 981.04300,303.69707, 1.2330e-002
 981.54300,303.88089, 1.2335e-002
 982.04300,304.06374, 1.2341e-002
 982.54300,304.24619, 1.2347e-002
 983.04300,304.42905, 1.2353e-002
 983.54300,304.61274, 1.2360e-002
 984.04300,304.79832, 1.2366e-002
 984.54300,304.98559, 1.2371e-002
 985.04300,305.17475, 1.2378e-002
 985.54300,305.36473, 1.2384e-002
 986.04300,305.55404, 1.2390e-002
 986.54300,305.74310, 1.2395e-002
 987.04300,305.93051, 1.2401e-002
 987.54300,306.11826, 1.2407e-002
 988.04300,306.30552, 1.2413e-002
 988.54300,306.49208, 1.2418e-002
 989.04300,306.67607, 1.2424e-002
 989.54300,306.85733, 1.2431e-002
 990.04300,307.03698, 1.2437e-002
 990.54300,307.21535, 1.2443e-002
 991.04300,307.39438, 1.2448e-002
 991.54300,307.57492, 1.2454e-002
 992.04300,307.75823, 1.2460e-002
 992.54300,307.94482, 1.2466e-002
 993.04300,308.13400, 1.2474e-002
 993.54300,308.32497, 1.2480e-002
 994.04300,308.51510, 1.2486e-002
 994.54300,308.70315, 1.2492e-002
 995.04300,308.88962, 1.2498e-002
 995.54300,309.07512, 1.2505e-002
 996.04300,309.26248, 1.2511e-002
 996.54300,309.45243, 1.2517e-002
 997.04300,309.64551, 1.2524e-002
 997.54300,309.84160, 1.2530e-002
 998.04300,310.04019, 1.2538e-002
 998.54300,310.24136, 1.2546e-002
 999.04300,310.44547, 1.2553e-002
 999.54300,310.65141, 1.2559e-002
1000.04300,310.85843, 1.2566e-002
1000.54300,311.06592, 1.2572e-002
1001.04300,311.27252, 1.2578e-002
1001.54300,311.47679, 1.2584e-002
1002.04300,311.67641, 1.2590e-002
1002.54300,311.87036, 1.2596e-002
1003.04300,312.05997, 1.2601e-002
1003.54300,312.24643, 1.2607e-002
1004.04300,312.43032, 1.2613e-002
1004.54300,312.61256, 1.2619e-002
1005.04300,312.79310, 1.2625e-002
1005.54300,312.97244, 1.2630e-002
1006.04300,313.15156, 1.2636e-002
1006.54300,313.33016, 1.2642e-002
1007.04300,313.50931, 1.2647e-002
1007.54300,313.68862, 1.2653e-002
1008.04300,313.86764, 1.2659e-002
1008.54300,314.04706, 1.2664e-002
1009.04300,314.22584, 1.2670e-002
1009.54300,314.40463, 1.2675e-002
1010.04300,314.58433, 1.2682e-002
1010.54300,314.76548, 1.2688e-002
1011.04300,314.94843, 1.2694e-002
1011.54300,315.13317, 1.2701e-002
1012.04300,315.31902, 1.2707e-002
1012.54300,315.50532, 1.2712e-002
1013.04300,315.69208, 1.2718e-002
1013.54300,315.87676, 1.2724e-002
1014.04300,316.05864, 1.2731e-002
1014.54300,316.23653, 1.2736e-002
1015.04300,316.41108, 1.2742e-002
1015.54300,316.58628, 1.2746e-002
1016.04300,316.76435, 1.2752e-002
1016.54300,316.94757, 1.2759e-002
1017.04300,317.13733, 1.2767e-002
1017.54300,317.33147, 1.2773e-002
1018.04300,317.52650, 1.2779e-002
1018.54300,317.72104, 1.2785e-002
1019.04300,317.91410, 1.2790e-002
1019.54300,318.10577, 1.2797e-002

