#EXPORTTYPE:           ,DATA ALL                                                               
#FILE:                 ,oligHawk010s1r3.ngb-sle                                                
#FORMAT:               ,NETZSCH5                                                               
#FTYPE:                ,ANSI                                                                   
#IDENTITY:             ,oligioclase                                                            
#DECIMAL:              ,POINT                                                                  
#SEPARATOR:            ,COMMA                                                                  
#MTYPE:                ,DIL                                                                    
#INSTRUMENT:           ,NETZSCH DIL 402C                                                       
#PROJECT:              ,feldspar                                                               
#DATE/TIME:            ,8/24/2019 10:12:59 AM (UTC-5)                                          
#CORR. FILE:           ,                                                                       
#TEMPCAL:              ,TCALZERO.TMX                                                           
#LABORATORY:           ,Mineral Physics                                                        
#OPERATOR:             ,PAG                                                                    
#REMARK:               ,bare, norm start, for short plageioclase, sapphire, same crystal as 001
#SAMPLE:               ,hawk mine 010                                                          
#SAMPLE LENGTH /mm:    ,8.25                                                                   
#MATERIAL:             ,sapphire stnd                                                          
#MEASMODE:             ,Standard Expansion                                                     
#PURGE GAS 1:          ,ARGON                                                                  
#FLOW RATE 1 /(ml/min):,75                                                                     
#M.RANGE /µm:          ,500                                                                    
#CORR. CODE:           ,010                                                                    
#RANGE:                ,20.0°C/3.0(K/min)/1010.0°C                                             
#SEGMENT:              ,S1/1                                                                   
#SEG. 1:               ,20.0°C/3.0(K/min)/1010.0°C                                             

##Temp./°C,Time/min,dL/Lo,Alpha/(1/K)
  21.53000,  0.00000, 1.5194e-005, 5.4781e-006
  22.03000,  4.02318, 1.3623e-005,-1.6926e-005
  22.53000,  4.42213, 2.9747e-006,-1.9520e-005
  23.03000,  4.69738,-6.6556e-006,-1.8721e-005
  23.53000,  4.91933,-1.5849e-005,-1.6374e-005
  24.03000,  5.11010,-2.3285e-005,-1.4580e-005
  24.53000,  5.28089,-3.0397e-005,-1.2973e-005
  25.03000,  5.43715,-3.6482e-005,-1.2544e-005
  25.53000,  5.58283,-4.2443e-005,-1.0925e-005
  26.03000,  5.72085,-4.7754e-005,-9.5705e-006
  26.53000,  5.85218,-5.2422e-005,-9.0510e-006
  27.03000,  5.97858,-5.6522e-005,-7.4825e-006
  27.53000,  6.10092,-6.0093e-005,-6.3585e-006
  28.03000,  6.21996,-6.3156e-005,-5.9138e-006
  28.53000,  6.33643,-6.6067e-005,-4.9625e-006
  29.03000,  6.45081,-6.8480e-005,-4.1222e-006
  29.53000,  6.56398,-7.0054e-005,-4.1216e-006
  30.03000,  6.67555,-7.2125e-005,-2.9979e-006
  30.53000,  6.78610,-7.3331e-005,-2.5149e-006
  31.03000,  6.89543,-7.4109e-005,-1.2711e-006
  31.53000,  7.00340,-7.4811e-005,-1.0018e-006
  32.03000,  7.11046,-7.5304e-005, 1.5269e-007
  32.53000,  7.21699,-7.4934e-005, 5.5212e-007
  33.03000,  7.32284,-7.4604e-005, 4.4853e-007
  33.53000,  7.42847,-7.4041e-005, 1.7264e-006
  34.03000,  7.53378,-7.2974e-005, 1.8129e-006
  34.53000,  7.63909,-7.2486e-005, 2.2001e-006
  35.03000,  7.74461,-7.1011e-005, 3.0142e-006
  35.53000,  7.85000,-6.9312e-005, 2.9300e-006
  36.03000,  7.95541,-6.7497e-005, 3.8030e-006
  36.53000,  8.06071,-6.5764e-005, 4.4908e-006
  37.03000,  8.16586,-6.3072e-005, 4.2927e-006
  37.53000,  8.27094,-6.1317e-005, 4.4469e-006
  38.03000,  8.37608,-5.8996e-005, 4.4896e-006
  38.53000,  8.48097,-5.6217e-005, 6.0133e-006
  39.03000,  8.58598,-5.3710e-005, 5.6471e-006
  39.53000,  8.69064,-5.0689e-005, 5.9394e-006
  40.03000,  8.79488,-4.7593e-005, 6.3219e-006
  40.53000,  8.89909,-4.4293e-005, 6.4886e-006
  41.03000,  9.00301,-4.1012e-005, 7.0498e-006
  41.53000,  9.10682,-3.7409e-005, 7.1180e-006
  42.03000,  9.21034,-3.3883e-005, 6.9761e-006
  42.53000,  9.31330,-3.0027e-005, 7.4511e-006
  43.03000,  9.41634,-2.6644e-005, 7.8721e-006
  43.53000,  9.51900,-2.2623e-005, 7.5882e-006
  44.03000,  9.62129,-1.8993e-005, 7.3921e-006
  44.53000,  9.72342,-1.4883e-005, 8.1256e-006
  45.03000,  9.82511,-1.0848e-005, 8.1749e-006
  45.53000,  9.92632,-6.7966e-006, 8.0322e-006
  46.03000, 10.02707,-2.8105e-006, 8.2587e-006
  46.53000, 10.12706, 1.3748e-006, 8.2284e-006
  47.03000, 10.22708, 5.5744e-006, 8.7758e-006
  47.53000, 10.32674, 9.8716e-006, 8.6568e-006
  48.03000, 10.42599, 1.4028e-005, 8.6171e-006
  48.53000, 10.52471, 1.8572e-005, 8.4312e-006
  49.03000, 10.62314, 2.2749e-005, 8.8101e-006
  49.53000, 10.72144, 2.7139e-005, 8.6953e-006
  50.03000, 10.81956, 3.1488e-005, 8.3635e-006
  50.53000, 10.91728, 3.5820e-005, 9.1550e-006
  51.03000, 11.01450, 4.0285e-005, 9.0198e-006
  51.53000, 11.11145, 4.5068e-005, 8.9698e-006
  52.03000, 11.20817, 4.9546e-005, 9.3929e-006
  52.53000, 11.30464, 5.4149e-005, 9.4331e-006
  53.03000, 11.40098, 5.8891e-005, 9.4505e-006
  53.53000, 11.49700, 6.3777e-005, 9.3155e-006
  54.03000, 11.59288, 6.8392e-005, 9.7051e-006
  54.53000, 11.68863, 7.3540e-005, 1.0064e-005
  55.03000, 11.78416, 7.8470e-005, 9.6514e-006
  55.53000, 11.87949, 8.3185e-005, 1.0023e-005
  56.03000, 11.97469, 8.8217e-005, 1.0024e-005
  56.53000, 12.06996, 9.3117e-005, 1.0521e-005
  57.03000, 12.16509, 9.8580e-005, 1.0059e-005
  57.53000, 12.26026, 1.0342e-004, 1.0535e-005
  58.03000, 12.35517, 1.0883e-004, 1.1097e-005
  58.53000, 12.45003, 1.1434e-004, 1.0686e-005
  59.03000, 12.54512, 1.1939e-004, 1.0959e-005
  59.53000, 12.63994, 1.2552e-004, 1.1053e-005
  60.03000, 12.73462, 1.3087e-004, 1.1367e-005
  60.53000, 12.82884, 1.3693e-004, 1.1233e-005
  61.03000, 12.92317, 1.4227e-004, 1.1473e-005
  61.53000, 13.01720, 1.4824e-004, 1.1694e-005
  62.03000, 13.11130, 1.5433e-004, 1.1892e-005
  62.53000, 13.20517, 1.5994e-004, 1.1951e-005
  63.03000, 13.29901, 1.6615e-004, 1.2516e-005
  63.53000, 13.39319, 1.7219e-004, 1.3046e-005
  64.03000, 13.48729, 1.7889e-004, 1.2103e-005
  64.53000, 13.58157, 1.8507e-004, 1.2674e-005
  65.03000, 13.67608, 1.9119e-004, 1.2236e-005
  65.53000, 13.77054, 1.9774e-004, 1.2918e-005
  66.03000, 13.86516, 2.0384e-004, 1.2733e-005
  66.53000, 13.95970, 2.1029e-004, 1.2850e-005
  67.03000, 14.05428, 2.1645e-004, 1.2503e-005
  67.53000, 14.14894, 2.2299e-004, 1.2885e-005
  68.03000, 14.24367, 2.2964e-004, 1.3209e-005
  68.53000, 14.33825, 2.3599e-004, 1.3116e-005
  69.03000, 14.43280, 2.4243e-004, 1.2922e-005
  69.53000, 14.52741, 2.4915e-004, 1.3025e-005
  70.03000, 14.62208, 2.5588e-004, 1.2951e-005
  70.53000, 14.71696, 2.6202e-004, 1.3295e-005
  71.03000, 14.81171, 2.6887e-004, 1.2874e-005
  71.53000, 14.90644, 2.7506e-004, 1.3003e-005
  72.03000, 15.00137, 2.8168e-004, 1.3024e-005
  72.53000, 15.09636, 2.8824e-004, 1.2917e-005
  73.03000, 15.19139, 2.9478e-004, 1.4085e-005
  73.53000, 15.28651, 3.0169e-004, 1.3294e-005
  74.03000, 15.38169, 3.0843e-004, 1.3094e-005
  74.53000, 15.47681, 3.1465e-004, 1.2948e-005
  75.03000, 15.57209, 3.2173e-004, 1.3578e-005
  75.53000, 15.66734, 3.2801e-004, 1.3141e-005
  76.03000, 15.76273, 3.3440e-004, 1.3318e-005
  76.53000, 15.85830, 3.4151e-004, 1.3296e-005
  77.03000, 15.95374, 3.4786e-004, 1.3143e-005
  77.53000, 16.04928, 3.5472e-004, 1.3359e-005
  78.03000, 16.14477, 3.6108e-004, 1.3137e-005
  78.53000, 16.24038, 3.6807e-004, 1.3640e-005
  79.03000, 16.33608, 3.7480e-004, 1.3135e-005
  79.53000, 16.43182, 3.8118e-004, 1.3655e-005
  80.03000, 16.52748, 3.8815e-004, 1.3704e-005
  80.53000, 16.62341, 3.9526e-004, 1.3717e-005
  81.03000, 16.71944, 4.0191e-004, 1.3874e-005
  81.53000, 16.81565, 4.0891e-004, 1.3088e-005
  82.03000, 16.91190, 4.1532e-004, 1.3803e-005
  82.53000, 17.00825, 4.2236e-004, 1.3993e-005
  83.03000, 17.10471, 4.2930e-004, 1.3772e-005
  83.53000, 17.20127, 4.3611e-004, 1.3651e-005
  84.03000, 17.29790, 4.4318e-004, 1.4173e-005
  84.53000, 17.39455, 4.5048e-004, 1.3750e-005
  85.03000, 17.49126, 4.5676e-004, 1.3759e-005
  85.53000, 17.58836, 4.6416e-004, 1.4305e-005
  86.03000, 17.68544, 4.7096e-004, 1.4167e-005
  86.53000, 17.78251, 4.7823e-004, 1.3889e-005
  87.03000, 17.87962, 4.8503e-004, 1.4396e-005
  87.53000, 17.97695, 4.9210e-004, 1.4045e-005
  88.03000, 18.07436, 4.9931e-004, 1.4293e-005
  88.53000, 18.17190, 5.0628e-004, 1.4169e-005
  89.03000, 18.26952, 5.1355e-004, 1.3933e-005
  89.53000, 18.36727, 5.2065e-004, 1.3924e-005
  90.03000, 18.46492, 5.2761e-004, 1.3946e-005
  90.53000, 18.56285, 5.3430e-004, 1.4356e-005
  91.03000, 18.66092, 5.4193e-004, 1.4849e-005
  91.53000, 18.75902, 5.4941e-004, 1.4394e-005
  92.03000, 18.85730, 5.5632e-004, 1.4109e-005
  92.53000, 18.95565, 5.6312e-004, 1.4089e-005
  93.03000, 19.05410, 5.7014e-004, 1.4584e-005
  93.53000, 19.15269, 5.7795e-004, 1.4765e-005
  94.03000, 19.25153, 5.8508e-004, 1.4134e-005
  94.53000, 19.35038, 5.9232e-004, 1.4624e-005
  95.03000, 19.44937, 5.9930e-004, 1.4811e-005
  95.53000, 19.54828, 6.0717e-004, 1.4601e-005
  96.03000, 19.64721, 6.1423e-004, 1.4613e-005
  96.53000, 19.74627, 6.2123e-004, 1.4366e-005
  97.03000, 19.84543, 6.2842e-004, 1.4860e-005
  97.53000, 19.94463, 6.3607e-004, 1.4482e-005
  98.03000, 20.04388, 6.4334e-004, 1.4615e-005
  98.53000, 20.14311, 6.5084e-004, 1.4428e-005
  99.03000, 20.24260, 6.5776e-004, 1.4605e-005
  99.53000, 20.34210, 6.6501e-004, 1.4725e-005
 100.03000, 20.44173, 6.7291e-004, 1.4754e-005
 100.53000, 20.54154, 6.7999e-004, 1.5064e-005
 101.03000, 20.64138, 6.8752e-004, 1.4199e-005
 101.53000, 20.74135, 6.9418e-004, 1.4043e-005
 102.03000, 20.84139, 7.0172e-004, 1.5112e-005
 102.53000, 20.94135, 7.0921e-004, 1.4759e-005
 103.03000, 21.04155, 7.1675e-004, 1.4495e-005
 103.53000, 21.14171, 7.2355e-004, 1.4685e-005
 104.03000, 21.24189, 7.3127e-004, 1.4397e-005
 104.53000, 21.34221, 7.3813e-004, 1.4598e-005
 105.03000, 21.44267, 7.4554e-004, 1.4640e-005
 105.53000, 21.54321, 7.5295e-004, 1.4591e-005
 106.03000, 21.64397, 7.6049e-004, 1.5038e-005
 106.53000, 21.74463, 7.6785e-004, 1.4798e-005
 107.03000, 21.84534, 7.7504e-004, 1.4629e-005
 107.53000, 21.94608, 7.8260e-004, 1.4931e-005
 108.03000, 22.04693, 7.9001e-004, 1.5065e-005
 108.53000, 22.14785, 7.9762e-004, 1.4587e-005
 109.03000, 22.24886, 8.0519e-004, 1.4693e-005
 109.53000, 22.35005, 8.1224e-004, 1.4918e-005
 110.03000, 22.45160, 8.1974e-004, 1.5018e-005
 110.53000, 22.55332, 8.2705e-004, 1.4515e-005
 111.03000, 22.65507, 8.3444e-004, 1.4884e-005
 111.53000, 22.75698, 8.4155e-004, 1.4860e-005
 112.03000, 22.85886, 8.4930e-004, 1.4715e-005
 112.53000, 22.96084, 8.5706e-004, 1.5156e-005
 113.03000, 23.06306, 8.6406e-004, 1.4618e-005
 113.53000, 23.16497, 8.7194e-004, 1.4937e-005
 114.03000, 23.26696, 8.7910e-004, 1.5250e-005
 114.53000, 23.36902, 8.8676e-004, 1.4906e-005
 115.03000, 23.47118, 8.9445e-004, 1.4981e-005
 115.53000, 23.57349, 9.0144e-004, 1.4609e-005
 116.03000, 23.67591, 9.0879e-004, 1.5190e-005
 116.53000, 23.77823, 9.1625e-004, 1.5198e-005
 117.03000, 23.88076, 9.2377e-004, 1.4840e-005
 117.53000, 23.98333, 9.3137e-004, 1.4962e-005
 118.03000, 24.08603, 9.3882e-004, 1.5178e-005
 118.53000, 24.18866, 9.4652e-004, 1.4908e-005
 119.03000, 24.29125, 9.5415e-004, 1.5450e-005
 119.53000, 24.39391, 9.6168e-004, 1.5129e-005
 120.03000, 24.49663, 9.6918e-004, 1.5182e-005
 120.53000, 24.59949, 9.7719e-004, 1.4599e-005
 121.03000, 24.70221, 9.8426e-004, 1.5013e-005
 121.53000, 24.80511, 9.9179e-004, 1.4951e-005
 122.03000, 24.90813, 9.9934e-004, 1.5402e-005
 122.53000, 25.01137, 1.0067e-003, 1.5264e-005
 123.03000, 25.11449, 1.0147e-003, 1.5185e-005
 123.53000, 25.21762, 1.0219e-003, 1.4978e-005
 124.03000, 25.32080, 1.0293e-003, 1.4828e-005
 124.53000, 25.42417, 1.0370e-003, 1.5511e-005
 125.03000, 25.52736, 1.0445e-003, 1.5011e-005
 125.53000, 25.63059, 1.0522e-003, 1.5064e-005
 126.03000, 25.73392, 1.0596e-003, 1.5332e-005
 126.53000, 25.83746, 1.0674e-003, 1.4923e-005
 127.03000, 25.94113, 1.0751e-003, 1.5274e-005
 127.53000, 26.04470, 1.0826e-003, 1.5272e-005
 128.03000, 26.14854, 1.0897e-003, 1.4698e-005
 128.53000, 26.25261, 1.0973e-003, 1.5207e-005
 129.03000, 26.35673, 1.1054e-003, 1.5444e-005
 129.53000, 26.46072, 1.1127e-003, 1.4840e-005
 130.03000, 26.56486, 1.1200e-003, 1.5386e-005
 130.53000, 26.66917, 1.1279e-003, 1.4788e-005
 131.03000, 26.77359, 1.1357e-003, 1.5851e-005
 131.53000, 26.87809, 1.1431e-003, 1.5232e-005
 132.03000, 26.98259, 1.1510e-003, 1.5179e-005
 132.53000, 27.08714, 1.1587e-003, 1.5307e-005
 133.03000, 27.19181, 1.1659e-003, 1.5070e-005
 133.53000, 27.29630, 1.1740e-003, 1.6047e-005
 134.03000, 27.40076, 1.1814e-003, 1.5436e-005
 134.53000, 27.50537, 1.1895e-003, 1.4969e-005
 135.03000, 27.60986, 1.1967e-003, 1.4868e-005
 135.53000, 27.71449, 1.2042e-003, 1.5131e-005
 136.03000, 27.81918, 1.2118e-003, 1.5741e-005
 136.53000, 27.92398, 1.2197e-003, 1.4870e-005
 137.03000, 28.02920, 1.2270e-003, 1.4947e-005
 137.53000, 28.13460, 1.2348e-003, 1.5078e-005
 138.03000, 28.23981, 1.2420e-003, 1.4828e-005
 138.53000, 28.34504, 1.2494e-003, 1.5242e-005
 139.03000, 28.45055, 1.2575e-003, 1.5209e-005
 139.53000, 28.55607, 1.2645e-003, 1.4886e-005
 140.03000, 28.66160, 1.2726e-003, 1.4672e-005
 140.53000, 28.76713, 1.2795e-003, 1.5461e-005
 141.03000, 28.87244, 1.2873e-003, 1.4627e-005
 141.53000, 28.97802, 1.2945e-003, 1.5508e-005
 142.03000, 29.08383, 1.3019e-003, 1.5277e-005
 142.53000, 29.18964, 1.3100e-003, 1.4877e-005
 143.03000, 29.29540, 1.3174e-003, 1.5230e-005
 143.53000, 29.40134, 1.3250e-003, 1.5982e-005
 144.03000, 29.50768, 1.3329e-003, 1.4732e-005
 144.53000, 29.61419, 1.3406e-003, 1.4911e-005
 145.03000, 29.72082, 1.3477e-003, 1.4842e-005
 145.53000, 29.82730, 1.3548e-003, 1.4476e-005
 146.03000, 29.93385, 1.3623e-003, 1.4859e-005
 146.53000, 30.04058, 1.3696e-003, 1.4889e-005
 147.03000, 30.14723, 1.3771e-003, 1.4425e-005
 147.53000, 30.25382, 1.3843e-003, 1.4920e-005
 148.03000, 30.36052, 1.3922e-003, 1.5369e-005
 148.53000, 30.46730, 1.3997e-003, 1.5063e-005
 149.03000, 30.57403, 1.4070e-003, 1.4394e-005
 149.53000, 30.68086, 1.4145e-003, 1.4881e-005
 150.03000, 30.78764, 1.4215e-003, 1.4586e-005
 150.53000, 30.89456, 1.4291e-003, 1.4492e-005
 151.03000, 31.00137, 1.4361e-003, 1.4201e-005
 151.53000, 31.10820, 1.4433e-003, 1.4095e-005
 152.03000, 31.21504, 1.4498e-003, 1.4260e-005
 152.53000, 31.32197, 1.4575e-003, 1.4349e-005
 153.03000, 31.42912, 1.4645e-003, 1.4144e-005
 153.53000, 31.53627, 1.4718e-003, 1.4214e-005
 154.03000, 31.64340, 1.4785e-003, 1.3945e-005
 154.53000, 31.75071, 1.4860e-003, 1.4229e-005
 155.03000, 31.85814, 1.4929e-003, 1.3562e-005
 155.53000, 31.96566, 1.4996e-003, 1.4228e-005
 156.03000, 32.07322, 1.5067e-003, 1.4038e-005
 156.53000, 32.18083, 1.5136e-003, 1.3738e-005
 157.03000, 32.28838, 1.5207e-003, 1.4117e-005
 157.53000, 32.39590, 1.5277e-003, 1.2944e-005
 158.03000, 32.50338, 1.5338e-003, 1.4107e-005
 158.53000, 32.61077, 1.5413e-003, 1.3454e-005
 159.03000, 32.71835, 1.5476e-003, 1.2863e-005
 159.53000, 32.82583, 1.5543e-003, 1.4201e-005
 160.03000, 32.93331, 1.5613e-003, 1.3169e-005
 160.53000, 33.04103, 1.5681e-003, 1.3213e-005
 161.03000, 33.14870, 1.5745e-003, 1.3373e-005
 161.53000, 33.25647, 1.5813e-003, 1.3451e-005
 162.03000, 33.36447, 1.5879e-003, 1.2872e-005
 162.53000, 33.47246, 1.5942e-003, 1.2687e-005
 163.03000, 33.58068, 1.6005e-003, 1.3289e-005
 163.53000, 33.68891, 1.6072e-003, 1.2328e-005
 164.03000, 33.79722, 1.6136e-003, 1.2254e-005
 164.53000, 33.90553, 1.6196e-003, 1.2940e-005
 165.03000, 34.01387, 1.6258e-003, 1.2179e-005
 165.53000, 34.12209, 1.6324e-003, 1.1586e-005
 166.03000, 34.23044, 1.6377e-003, 1.2422e-005
 166.53000, 34.33879, 1.6437e-003, 1.0979e-005
 167.03000, 34.44730, 1.6493e-003, 1.1633e-005
 167.53000, 34.55591, 1.6552e-003, 1.1902e-005
 168.03000, 34.66452, 1.6613e-003, 1.1269e-005
 168.53000, 34.77324, 1.6666e-003, 1.0460e-005
 169.03000, 34.88200, 1.6718e-003, 1.0849e-005
 169.53000, 34.99092, 1.6771e-003, 1.0377e-005
 170.03000, 35.09988, 1.6824e-003, 9.7278e-006
 170.53000, 35.20901, 1.6872e-003, 9.9643e-006
 171.03000, 35.31842, 1.6918e-003, 9.4362e-006
 171.53000, 35.42786, 1.6968e-003, 9.8403e-006
 172.03000, 35.53740, 1.7015e-003, 9.9578e-006
 172.53000, 35.64705, 1.7065e-003, 9.6486e-006
 173.03000, 35.75677, 1.7116e-003, 1.0104e-005
 173.53000, 35.86649, 1.7166e-003, 1.0295e-005
 174.03000, 35.97629, 1.7217e-003, 1.0174e-005
 174.53000, 36.08602, 1.7270e-003, 1.1081e-005
 175.03000, 36.19581, 1.7325e-003, 1.0640e-005
 175.53000, 36.30553, 1.7379e-003, 1.1699e-005
 176.03000, 36.41528, 1.7436e-003, 1.1816e-005
 176.53000, 36.52498, 1.7498e-003, 1.2292e-005
 177.03000, 36.63486, 1.7563e-003, 1.2713e-005
 177.53000, 36.74476, 1.7626e-003, 1.3041e-005
 178.03000, 36.85460, 1.7690e-003, 1.3889e-005
 178.53000, 36.96467, 1.7764e-003, 1.3424e-005
 179.03000, 37.07488, 1.7829e-003, 1.4387e-005
 179.53000, 37.18528, 1.7907e-003, 1.4665e-005
 180.03000, 37.29551, 1.7975e-003, 1.4272e-005
 180.53000, 37.40571, 1.8049e-003, 1.4867e-005
 181.03000, 37.51604, 1.8125e-003, 1.5034e-005
 181.53000, 37.62646, 1.8199e-003, 1.4504e-005
 182.03000, 37.73706, 1.8275e-003, 1.5007e-005
 182.53000, 37.84763, 1.8347e-003, 1.4995e-005
 183.03000, 37.95838, 1.8421e-003, 1.5277e-005
 183.53000, 38.06942, 1.8499e-003, 1.5122e-005
 184.03000, 38.18044, 1.8571e-003, 1.5001e-005
 184.53000, 38.29152, 1.8649e-003, 1.5442e-005
 185.03000, 38.40270, 1.8728e-003, 1.5534e-005
 185.53000, 38.51368, 1.8803e-003, 1.5275e-005
 186.03000, 38.62475, 1.8878e-003, 1.5074e-005
 186.53000, 38.73587, 1.8953e-003, 1.5517e-005
 187.03000, 38.84717, 1.9030e-003, 1.4986e-005
 187.53000, 38.95841, 1.9110e-003, 1.6059e-005
 188.03000, 39.06968, 1.9184e-003, 1.5524e-005
 188.53000, 39.18104, 1.9265e-003, 1.5483e-005
 189.03000, 39.29247, 1.9343e-003, 1.5657e-005
 189.53000, 39.40396, 1.9419e-003, 1.5181e-005
 190.03000, 39.51533, 1.9496e-003, 1.5623e-005
 190.53000, 39.62687, 1.9575e-003, 1.5486e-005
 191.03000, 39.73843, 1.9648e-003, 1.5518e-005
 191.53000, 39.85007, 1.9728e-003, 1.5795e-005
 192.03000, 39.96189, 1.9808e-003, 1.5814e-005
 192.53000, 40.07376, 1.9885e-003, 1.5268e-005
 193.03000, 40.18581, 1.9962e-003, 1.5971e-005
 193.53000, 40.29772, 2.0041e-003, 1.5356e-005
 194.03000, 40.40951, 2.0120e-003, 1.6006e-005
 194.53000, 40.52155, 2.0200e-003, 1.5382e-005
 195.03000, 40.63364, 2.0277e-003, 1.5940e-005
 195.53000, 40.74581, 2.0355e-003, 1.5578e-005
 196.03000, 40.85789, 2.0436e-003, 1.5167e-005
 196.53000, 40.97031, 2.0511e-003, 1.6080e-005
 197.03000, 41.08302, 2.0589e-003, 1.5407e-005
 197.53000, 41.19554, 2.0672e-003, 1.5660e-005
 198.03000, 41.30830, 2.0747e-003, 1.6302e-005
 198.53000, 41.42088, 2.0827e-003, 1.5868e-005
 199.03000, 41.53362, 2.0908e-003, 1.6003e-005
 199.53000, 41.64632, 2.0985e-003, 1.5621e-005
 200.03000, 41.75908, 2.1060e-003, 1.5123e-005
 200.53000, 41.87187, 2.1138e-003, 1.5470e-005
 201.03000, 41.98478, 2.1218e-003, 1.5704e-005
 201.53000, 42.09798, 2.1299e-003, 1.6218e-005
 202.03000, 42.21114, 2.1377e-003, 1.5010e-005
 202.53000, 42.32460, 2.1453e-003, 1.6026e-005
 203.03000, 42.43828, 2.1532e-003, 1.4883e-005
 203.53000, 42.55190, 2.1609e-003, 1.6538e-005
 204.03000, 42.66578, 2.1692e-003, 1.5539e-005
 204.53000, 42.77951, 2.1768e-003, 1.5627e-005
 205.03000, 42.89358, 2.1850e-003, 1.6198e-005
 205.53000, 43.00784, 2.1931e-003, 1.5917e-005
 206.03000, 43.12191, 2.2006e-003, 1.5864e-005
 206.53000, 43.23615, 2.2084e-003, 1.5640e-005
 207.03000, 43.35050, 2.2168e-003, 1.6091e-005
 207.53000, 43.46504, 2.2245e-003, 1.4962e-005
 208.03000, 43.57941, 2.2322e-003, 1.6240e-005
 208.53000, 43.69364, 2.2404e-003, 1.5612e-005
 209.03000, 43.80779, 2.2479e-003, 1.5839e-005
 209.53000, 43.92207, 2.2561e-003, 1.5921e-005
 210.03000, 44.03601, 2.2641e-003, 1.5826e-005
 210.53000, 44.15022, 2.2717e-003, 1.5009e-005
 211.03000, 44.26431, 2.2793e-003, 1.5676e-005
 211.53000, 44.37835, 2.2872e-003, 1.5794e-005
 212.03000, 44.49285, 2.2949e-003, 1.5391e-005
 212.53000, 44.60737, 2.3030e-003, 1.6076e-005
 213.03000, 44.72202, 2.3109e-003, 1.5807e-005
 213.53000, 44.83652, 2.3184e-003, 1.5438e-005
 214.03000, 44.95098, 2.3268e-003, 1.6387e-005
 214.53000, 45.06574, 2.3347e-003, 1.5557e-005
 215.03000, 45.18045, 2.3427e-003, 1.5228e-005
 215.53000, 45.29533, 2.3503e-003, 1.5987e-005
 216.03000, 45.41042, 2.3583e-003, 1.5746e-005
 216.53000, 45.52575, 2.3658e-003, 1.5862e-005
 217.03000, 45.64139, 2.3743e-003, 1.5866e-005
 217.53000, 45.75681, 2.3821e-003, 1.5822e-005
 218.03000, 45.87252, 2.3902e-003, 1.6689e-005
 218.53000, 45.98805, 2.3981e-003, 1.5501e-005
 219.03000, 46.10374, 2.4054e-003, 1.5571e-005
 219.53000, 46.21945, 2.4136e-003, 1.5782e-005
 220.03000, 46.33506, 2.4218e-003, 1.5953e-005
 220.53000, 46.45097, 2.4294e-003, 1.5388e-005
 221.03000, 46.56658, 2.4372e-003, 1.6240e-005
 221.53000, 46.68252, 2.4450e-003, 1.5377e-005
 222.03000, 46.79855, 2.4530e-003, 1.5302e-005
 222.53000, 46.91451, 2.4604e-003, 1.6315e-005
 223.03000, 47.03061, 2.4686e-003, 1.5307e-005
 223.53000, 47.14686, 2.4768e-003, 1.5957e-005
 224.03000, 47.26334, 2.4848e-003, 1.6203e-005
 224.53000, 47.37982, 2.4926e-003, 1.6063e-005
 225.03000, 47.49640, 2.5004e-003, 1.6215e-005
 225.53000, 47.61327, 2.5085e-003, 1.5561e-005
 226.03000, 47.73023, 2.5160e-003, 1.5654e-005
 226.53000, 47.84722, 2.5244e-003, 1.6207e-005
 227.03000, 47.96426, 2.5322e-003, 1.5882e-005
 227.53000, 48.08126, 2.5404e-003, 1.6239e-005
 228.03000, 48.19827, 2.5481e-003, 1.5769e-005
 228.53000, 48.31520, 2.5569e-003, 1.6339e-005
 229.03000, 48.43226, 2.5640e-003, 1.5430e-005
 229.53000, 48.54917, 2.5724e-003, 1.5700e-005
 230.03000, 48.66611, 2.5801e-003, 1.6305e-005
 230.53000, 48.78343, 2.5883e-003, 1.5993e-005
 231.03000, 48.90063, 2.5957e-003, 1.5843e-005
 231.53000, 49.01814, 2.6039e-003, 1.6427e-005
 232.03000, 49.13584, 2.6124e-003, 1.5997e-005
 232.53000, 49.25387, 2.6202e-003, 1.5587e-005
 233.03000, 49.37203, 2.6276e-003, 1.6081e-005
 233.53000, 49.48999, 2.6357e-003, 1.6313e-005
 234.03000, 49.60822, 2.6444e-003, 1.6634e-005
 234.53000, 49.72638, 2.6522e-003, 1.5924e-005
 235.03000, 49.84431, 2.6604e-003, 1.6224e-005
 235.53000, 49.96225, 2.6682e-003, 1.5765e-005
 236.03000, 50.08039, 2.6765e-003, 1.6054e-005
 236.53000, 50.19863, 2.6843e-003, 1.5742e-005
 237.03000, 50.31688, 2.6923e-003, 1.6215e-005
 237.53000, 50.43517, 2.7005e-003, 1.6175e-005
 238.03000, 50.55348, 2.7084e-003, 1.5651e-005
 238.53000, 50.67208, 2.7167e-003, 1.6151e-005
 239.03000, 50.79064, 2.7243e-003, 1.6023e-005
 239.53000, 50.90938, 2.7325e-003, 1.5831e-005
 240.03000, 51.02816, 2.7404e-003, 1.6144e-005
 240.53000, 51.14711, 2.7483e-003, 1.6222e-005
 241.03000, 51.26634, 2.7565e-003, 1.6197e-005
 241.53000, 51.38532, 2.7644e-003, 1.5908e-005
 242.03000, 51.50453, 2.7729e-003, 1.6480e-005
 242.53000, 51.62369, 2.7808e-003, 1.6571e-005
 243.03000, 51.74289, 2.7890e-003, 1.5920e-005
 243.53000, 51.86194, 2.7971e-003, 1.6165e-005
 244.03000, 51.98104, 2.8051e-003, 1.5891e-005
 244.53000, 52.10017, 2.8134e-003, 1.6338e-005
 245.03000, 52.21939, 2.8217e-003, 1.6622e-005
 245.53000, 52.33872, 2.8295e-003, 1.5967e-005
 246.03000, 52.45827, 2.8375e-003, 1.6192e-005
 246.53000, 52.57806, 2.8456e-003, 1.6063e-005
 247.03000, 52.69787, 2.8537e-003, 1.5371e-005
 247.53000, 52.81782, 2.8614e-003, 1.6541e-005
 248.03000, 52.93788, 2.8696e-003, 1.6098e-005
 248.53000, 53.05780, 2.8777e-003, 1.5910e-005
 249.03000, 53.17780, 2.8856e-003, 1.6299e-005
 249.53000, 53.29770, 2.8936e-003, 1.5632e-005
 250.03000, 53.41779, 2.9019e-003, 1.6594e-005
 250.53000, 53.53813, 2.9094e-003, 1.6074e-005
 251.03000, 53.65832, 2.9176e-003, 1.5284e-005
 251.53000, 53.77886, 2.9256e-003, 1.5824e-005
 252.03000, 53.89945, 2.9335e-003, 1.6304e-005
 252.53000, 54.02036, 2.9415e-003, 1.6502e-005
 253.03000, 54.14125, 2.9497e-003, 1.5650e-005
 253.53000, 54.26211, 2.9576e-003, 1.6404e-005
 254.03000, 54.38295, 2.9659e-003, 1.6288e-005
 254.53000, 54.50394, 2.9741e-003, 1.6368e-005
 255.03000, 54.62494, 2.9821e-003, 1.5440e-005
 255.53000, 54.74585, 2.9898e-003, 1.6066e-005
 256.03000, 54.86692, 2.9978e-003, 1.6338e-005
 256.53000, 54.98817, 3.0063e-003, 1.5909e-005
 257.03000, 55.10940, 3.0141e-003, 1.6177e-005
 257.53000, 55.23056, 3.0224e-003, 1.6493e-005
 258.03000, 55.35186, 3.0306e-003, 1.5974e-005
 258.53000, 55.47332, 3.0383e-003, 1.5902e-005
 259.03000, 55.59432, 3.0463e-003, 1.6303e-005
 259.53000, 55.71553, 3.0538e-003, 1.5616e-005
 260.03000, 55.83694, 3.0621e-003, 1.5563e-005
 260.53000, 55.95864, 3.0700e-003, 1.6563e-005
 261.03000, 56.08043, 3.0783e-003, 1.5944e-005
 261.53000, 56.20231, 3.0861e-003, 1.6246e-005
 262.03000, 56.32435, 3.0942e-003, 1.5767e-005
 262.53000, 56.44647, 3.1023e-003, 1.6931e-005
 263.03000, 56.56871, 3.1106e-003, 1.6310e-005
 263.53000, 56.69099, 3.1187e-003, 1.5755e-005
 264.03000, 56.81323, 3.1263e-003, 1.5877e-005
 264.53000, 56.93576, 3.1345e-003, 1.6224e-005
 265.03000, 57.05874, 3.1426e-003, 1.5550e-005
 265.53000, 57.18173, 3.1503e-003, 1.6473e-005
 266.03000, 57.30475, 3.1590e-003, 1.5791e-005
 266.53000, 57.42783, 3.1667e-003, 1.6270e-005
 267.03000, 57.55072, 3.1751e-003, 1.5585e-005
 267.53000, 57.67355, 3.1828e-003, 1.5860e-005
 268.03000, 57.79646, 3.1906e-003, 1.5321e-005
 268.53000, 57.91939, 3.1984e-003, 1.6148e-005
 269.03000, 58.04236, 3.2061e-003, 1.6375e-005
 269.53000, 58.16548, 3.2145e-003, 1.6041e-005
 270.03000, 58.28906, 3.2226e-003, 1.5365e-005
 270.53000, 58.41262, 3.2306e-003, 1.6559e-005
 271.03000, 58.53629, 3.2385e-003, 1.6000e-005
 271.53000, 58.66005, 3.2467e-003, 1.6245e-005
 272.03000, 58.78385, 3.2545e-003, 1.6008e-005
 272.53000, 58.90771, 3.2626e-003, 1.5247e-005
 273.03000, 59.03119, 3.2702e-003, 1.5962e-005
 273.53000, 59.15478, 3.2781e-003, 1.6574e-005
 274.03000, 59.27844, 3.2867e-003, 1.5236e-005
 274.53000, 59.40222, 3.2945e-003, 1.6688e-005
 275.03000, 59.52614, 3.3024e-003, 1.5651e-005
 275.53000, 59.65022, 3.3106e-003, 1.5532e-005
 276.03000, 59.77464, 3.3184e-003, 1.6594e-005
 276.53000, 59.89910, 3.3264e-003, 1.5431e-005
 277.03000, 60.02365, 3.3343e-003, 1.5984e-005
 277.53000, 60.14826, 3.3426e-003, 1.6088e-005
 278.03000, 60.27271, 3.3504e-003, 1.6474e-005
 278.53000, 60.39742, 3.3583e-003, 1.5703e-005
 279.03000, 60.52219, 3.3666e-003, 1.5780e-005
 279.53000, 60.64712, 3.3745e-003, 1.6075e-005
 280.03000, 60.77203, 3.3820e-003, 1.6322e-005
 280.53000, 60.89704, 3.3902e-003, 1.5185e-005
 281.03000, 61.02220, 3.3976e-003, 1.5917e-005
 281.53000, 61.14725, 3.4060e-003, 1.6122e-005
 282.03000, 61.27252, 3.4141e-003, 1.6157e-005
 282.53000, 61.39781, 3.4215e-003, 1.5606e-005
 283.03000, 61.52327, 3.4298e-003, 1.6024e-005
 283.53000, 61.64895, 3.4378e-003, 1.5461e-005
 284.03000, 61.77475, 3.4457e-003, 1.6068e-005
 284.53000, 61.90092, 3.4539e-003, 1.5997e-005
 285.03000, 62.02700, 3.4617e-003, 1.5802e-005
 285.53000, 62.15322, 3.4694e-003, 1.5729e-005
 286.03000, 62.27941, 3.4776e-003, 1.6436e-005
 286.53000, 62.40577, 3.4854e-003, 1.5854e-005
 287.03000, 62.53184, 3.4937e-003, 1.5837e-005
 287.53000, 62.65773, 3.5016e-003, 1.6556e-005
 288.03000, 62.78383, 3.5095e-003, 1.6170e-005
 288.53000, 62.91000, 3.5176e-003, 1.5329e-005
 289.03000, 63.03631, 3.5257e-003, 1.5680e-005
 289.53000, 63.16263, 3.5336e-003, 1.6179e-005
 290.03000, 63.28905, 3.5417e-003, 1.5955e-005
 290.53000, 63.41600, 3.5495e-003, 1.5353e-005
 291.03000, 63.54291, 3.5569e-003, 1.6242e-005
 291.53000, 63.66990, 3.5646e-003, 1.4938e-005
 292.03000, 63.79675, 3.5722e-003, 1.4967e-005
 292.53000, 63.92369, 3.5798e-003, 1.5561e-005
 293.03000, 64.05083, 3.5878e-003, 1.4878e-005
 293.53000, 64.17771, 3.5953e-003, 1.5550e-005
 294.03000, 64.30464, 3.6028e-003, 1.5529e-005
 294.53000, 64.43170, 3.6107e-003, 1.5280e-005
 295.03000, 64.55890, 3.6187e-003, 1.5263e-005
 295.53000, 64.68634, 3.6258e-003, 1.5147e-005
 296.03000, 64.81387, 3.6338e-003, 1.5852e-005
 296.53000, 64.94154, 3.6417e-003, 1.5780e-005
 297.03000, 65.06910, 3.6496e-003, 1.6762e-005
 297.53000, 65.19669, 3.6580e-003, 1.5723e-005
 298.03000, 65.32432, 3.6658e-003, 1.5404e-005
 298.53000, 65.45211, 3.6736e-003, 1.4938e-005
 299.03000, 65.58020, 3.6807e-003, 1.5806e-005
 299.53000, 65.70847, 3.6890e-003, 1.5357e-005
 300.03000, 65.83731, 3.6972e-003, 1.8531e-005
 300.53000, 65.96597, 3.7059e-003, 1.5299e-005
 301.03000, 66.09456, 3.7133e-003, 1.5834e-005
 301.53000, 66.22296, 3.7211e-003, 1.5221e-005
 302.03000, 66.35141, 3.7288e-003, 1.5639e-005
 302.53000, 66.47984, 3.7369e-003, 1.5851e-005
 303.03000, 66.60798, 3.7443e-003, 1.5286e-005
 303.53000, 66.73665, 3.7517e-003, 1.5981e-005
 304.03000, 66.86551, 3.7610e-003, 1.6272e-005
 304.53000, 66.99450, 3.7684e-003, 1.5545e-005
 305.03000, 67.12354, 3.7763e-003, 1.5344e-005
 305.53000, 67.25284, 3.7840e-003, 1.5621e-005
 306.03000, 67.38238, 3.7919e-003, 1.5774e-005
 306.53000, 67.51192, 3.7992e-003, 1.5534e-005
 307.03000, 67.64175, 3.8072e-003, 1.5774e-005
 307.53000, 67.77174, 3.8158e-003, 1.6317e-005
 308.03000, 67.90170, 3.8235e-003, 1.5381e-005
 308.53000, 68.03158, 3.8311e-003, 1.5730e-005
 309.03000, 68.16175, 3.8392e-003, 1.5426e-005
 309.53000, 68.29166, 3.8468e-003, 1.6398e-005
 310.03000, 68.42139, 3.8545e-003, 1.5268e-005
 310.53000, 68.55117, 3.8625e-003, 1.6380e-005
 311.03000, 68.68127, 3.8705e-003, 1.6210e-005
 311.53000, 68.81140, 3.8789e-003, 1.5686e-005
 312.03000, 68.94142, 3.8869e-003, 1.5531e-005
 312.53000, 69.07180, 3.8945e-003, 1.4635e-005
 313.03000, 69.20262, 3.9021e-003, 1.5303e-005
 313.53000, 69.33323, 3.9097e-003, 1.5712e-005
 314.03000, 69.46372, 3.9172e-003, 1.5435e-005
 314.53000, 69.59453, 3.9249e-003, 1.4992e-005
 315.03000, 69.72544, 3.9331e-003, 1.5217e-005
 315.53000, 69.85606, 3.9404e-003, 1.5744e-005
 316.03000, 69.98678, 3.9480e-003, 1.5441e-005
 316.53000, 70.11776, 3.9576e-003, 1.7012e-005
 317.03000, 70.24885, 3.9648e-003, 1.5591e-005
 317.53000, 70.37999, 3.9726e-003, 1.4922e-005
 318.03000, 70.51137, 3.9803e-003, 1.5121e-005
 318.53000, 70.64291, 3.9873e-003, 1.5443e-005
 319.03000, 70.77455, 3.9953e-003, 1.5579e-005
 319.53000, 70.90618, 4.0030e-003, 1.4907e-005
 320.03000, 71.03785, 4.0104e-003, 1.5631e-005
 320.53000, 71.16972, 4.0183e-003, 1.5348e-005
 321.03000, 71.30159, 4.0266e-003, 1.6905e-005
 321.53000, 71.43361, 4.0340e-003, 1.5254e-005
 322.03000, 71.56565, 4.0418e-003, 1.5648e-005
 322.53000, 71.69792, 4.0494e-003, 1.4556e-005
 323.03000, 71.83016, 4.0571e-003, 1.4964e-005
 323.53000, 71.96251, 4.0648e-003, 1.5846e-005
 324.03000, 72.09494, 4.0725e-003, 1.5522e-005
 324.53000, 72.22743, 4.0799e-003, 1.5442e-005
 325.03000, 72.36008, 4.0877e-003, 1.5704e-005
 325.53000, 72.49275, 4.0953e-003, 1.6360e-005
 326.03000, 72.62537, 4.1039e-003, 1.5389e-005
 326.53000, 72.75828, 4.1114e-003, 1.5175e-005
 327.03000, 72.89154, 4.1190e-003, 1.4963e-005
 327.53000, 73.02511, 4.1267e-003, 1.5262e-005
 328.03000, 73.15840, 4.1344e-003, 1.5261e-005
 328.53000, 73.29178, 4.1421e-003, 1.5314e-005
 329.03000, 73.42518, 4.1493e-003, 1.5732e-005
 329.53000, 73.55832, 4.1573e-003, 1.4296e-005
 330.03000, 73.69139, 4.1646e-003, 1.5751e-005
 330.53000, 73.82454, 4.1731e-003, 1.6974e-005
 331.03000, 73.95795, 4.1812e-003, 1.5596e-005
 331.53000, 74.09173, 4.1888e-003, 1.5398e-005
 332.03000, 74.22549, 4.1967e-003, 1.4624e-005
 332.53000, 74.35963, 4.2045e-003, 1.5187e-005
 333.03000, 74.49378, 4.2115e-003, 1.5502e-005
 333.53000, 74.62823, 4.2190e-003, 1.5334e-005
 334.03000, 74.76260, 4.2268e-003, 1.5503e-005
 334.53000, 74.89702, 4.2343e-003, 1.5347e-005
 335.03000, 75.03129, 4.2420e-003, 1.5315e-005
 335.53000, 75.16558, 4.2462e-003, 7.6526e-006
 336.03000, 75.29986, 4.2536e-003, 1.4714e-005
 336.53000, 75.43425, 4.2609e-003, 1.4028e-005
 337.03000, 75.56847, 4.2681e-003, 1.5521e-005
 337.53000, 75.70257, 4.2762e-003, 1.5123e-005
 338.03000, 75.83683, 4.2838e-003, 1.5509e-005
 338.53000, 75.97137, 4.2910e-003, 1.5289e-005
 339.03000, 76.10618, 4.2993e-003, 1.5211e-005
 339.53000, 76.24102, 4.3065e-003, 1.5447e-005
 340.03000, 76.37573, 4.3140e-003, 1.4952e-005
 340.53000, 76.51054, 4.3217e-003, 1.4816e-005
 341.03000, 76.64545, 4.3294e-003, 1.5236e-005
 341.53000, 76.78006, 4.3370e-003, 1.6297e-005
 342.03000, 76.91470, 4.3458e-003, 1.6997e-005
 342.53000, 77.05008, 4.3535e-003, 1.5114e-005
 343.03000, 77.18577, 4.3609e-003, 1.5329e-005
 343.53000, 77.32138, 4.3689e-003, 1.5665e-005
 344.03000, 77.45714, 4.3761e-003, 1.5008e-005
 344.53000, 77.59299, 4.3839e-003, 1.5569e-005
 345.03000, 77.72895, 4.3918e-003, 1.5381e-005
 345.53000, 77.86483, 4.3997e-003, 1.5266e-005
 346.03000, 78.00080, 4.4078e-003, 1.6739e-005
 346.53000, 78.13706, 4.4154e-003, 1.5649e-005
 347.03000, 78.27308, 4.4236e-003, 1.5892e-005
 347.53000, 78.40909, 4.4314e-003, 1.5672e-005
 348.03000, 78.54561, 4.4391e-003, 1.5630e-005
 348.53000, 78.68217, 4.4468e-003, 1.4896e-005
 349.03000, 78.81829, 4.4542e-003, 1.6318e-005
 349.53000, 78.95461, 4.4621e-003, 1.6670e-005
 350.03000, 79.09138, 4.4706e-003, 1.5448e-005
 350.53000, 79.22774, 4.4783e-003, 1.5949e-005
 351.03000, 79.36405, 4.4864e-003, 1.5397e-005
 351.53000, 79.50087, 4.4940e-003, 1.5648e-005
 352.03000, 79.63780, 4.5016e-003, 1.5878e-005
 352.53000, 79.77463, 4.5093e-003, 1.5384e-005
 353.03000, 79.91163, 4.5175e-003, 1.6433e-005
 353.53000, 80.04868, 4.5259e-003, 1.5895e-005
 354.03000, 80.18587, 4.5332e-003, 1.5185e-005
 354.53000, 80.32319, 4.5408e-003, 1.5799e-005
 355.03000, 80.46060, 4.5486e-003, 1.5025e-005
 355.53000, 80.59798, 4.5565e-003, 1.6023e-005
 356.03000, 80.73545, 4.5644e-003, 1.5599e-005
 356.53000, 80.87299, 4.5712e-003, 1.3661e-005
 357.03000, 81.01050, 4.5786e-003, 1.5114e-005
 357.53000, 81.14798, 4.5865e-003, 1.5003e-005
 358.03000, 81.28569, 4.5943e-003, 1.6781e-005
 358.53000, 81.42362, 4.6019e-003, 1.4780e-005
 359.03000, 81.56160, 4.6099e-003, 1.5771e-005
 359.53000, 81.69970, 4.6174e-003, 1.4798e-005
 360.03000, 81.83790, 4.6254e-003, 1.5620e-005
 360.53000, 81.97607, 4.6326e-003, 1.5545e-005
 361.03000, 82.11425, 4.6409e-003, 1.5386e-005
 361.53000, 82.25267, 4.6484e-003, 1.4950e-005
 362.03000, 82.39110, 4.6560e-003, 1.6751e-005
 362.53000, 82.52992, 4.6646e-003, 1.5472e-005
 363.03000, 82.66900, 4.6720e-003, 1.5564e-005
 363.53000, 82.80762, 4.6797e-003, 1.4665e-005
 364.03000, 82.94637, 4.6875e-003, 1.5139e-005
 364.53000, 83.08531, 4.6953e-003, 1.5468e-005
 365.03000, 83.22424, 4.7028e-003, 1.4972e-005
 365.53000, 83.36329, 4.7101e-003, 1.5160e-005
 366.03000, 83.50288, 4.7179e-003, 1.5417e-005
 366.53000, 83.64245, 4.7255e-003, 1.5029e-005
 367.03000, 83.78198, 4.7329e-003, 1.5755e-005
 367.53000, 83.92148, 4.7407e-003, 1.5764e-005
 368.03000, 84.06099, 4.7488e-003, 1.4923e-005
 368.53000, 84.20039, 4.7561e-003, 1.5407e-005
 369.03000, 84.34002, 4.7639e-003, 1.4625e-005
 369.53000, 84.47960, 4.7708e-003, 1.5425e-005
 370.03000, 84.61948, 4.7787e-003, 1.4858e-005
 370.53000, 84.75953, 4.7860e-003, 1.4362e-005
 371.03000, 84.89978, 4.7933e-003, 1.4952e-005
 371.53000, 85.03985, 4.8008e-003, 1.4883e-005
 372.03000, 85.17998, 4.8081e-003, 1.5089e-005
 372.53000, 85.31987, 4.8159e-003, 1.5010e-005
 373.03000, 85.45973, 4.8230e-003, 1.4526e-005
 373.53000, 85.59941, 4.8305e-003, 1.5108e-005
 374.03000, 85.73939, 4.8380e-003, 1.4191e-005
 374.53000, 85.87947, 4.8451e-003, 1.4658e-005
 375.03000, 86.01990, 4.8524e-003, 1.4834e-005
 375.53000, 86.16044, 4.8594e-003, 1.5716e-005
 376.03000, 86.30120, 4.8672e-003, 1.5080e-005
 376.53000, 86.44183, 4.8751e-003, 1.4884e-005
 377.03000, 86.58208, 4.8822e-003, 1.4385e-005
 377.53000, 86.72213, 4.8900e-003, 1.5745e-005
 378.03000, 86.86232, 4.8977e-003, 1.3817e-005
 378.53000, 87.00262, 4.9047e-003, 1.4179e-005
 379.03000, 87.14324, 4.9121e-003, 1.5869e-005
 379.53000, 87.28454, 4.9196e-003, 1.4512e-005
 380.03000, 87.42633, 4.9267e-003, 1.4359e-005
 380.53000, 87.56804, 4.9341e-003, 1.4614e-005
 381.03000, 87.70987, 4.9417e-003, 1.4334e-005
 381.53000, 87.85160, 4.9488e-003, 1.4680e-005
 382.03000, 87.99348, 4.9566e-003, 1.6024e-005
 382.53000, 88.13533, 4.9643e-003, 1.3999e-005
 383.03000, 88.27665, 4.9718e-003, 1.5578e-005
 383.53000, 88.41867, 4.9792e-003, 1.5145e-005
 384.03000, 88.56085, 4.9864e-003, 1.3919e-005
 384.53000, 88.70297, 4.9940e-003, 1.5416e-005
 385.03000, 88.84511, 5.0016e-003, 1.4646e-005
 385.53000, 88.98800, 5.0087e-003, 1.4983e-005
 386.03000, 89.13047, 5.0163e-003, 1.5559e-005
 386.53000, 89.27302, 5.0239e-003, 1.4596e-005
 387.03000, 89.41563, 5.0311e-003, 1.4702e-005
 387.53000, 89.55843, 5.0388e-003, 1.4756e-005
 388.03000, 89.70118, 5.0469e-003, 1.6269e-005
 388.53000, 89.84391, 5.0544e-003, 1.5628e-005
 389.03000, 89.98677, 5.0615e-003, 1.4792e-005
 389.53000, 90.12976, 5.0697e-003, 1.4878e-005
 390.03000, 90.27261, 5.0770e-003, 1.5571e-005
 390.53000, 90.41565, 5.0846e-003, 1.4613e-005
 391.03000, 90.55895, 5.0917e-003, 1.4610e-005
 391.53000, 90.70221, 5.0992e-003, 1.4950e-005
 392.03000, 90.84528, 5.1065e-003, 1.5732e-005
 392.53000, 90.98848, 5.1142e-003, 1.6329e-005
 393.03000, 91.13186, 5.1225e-003, 1.5238e-005
 393.53000, 91.27519, 5.1304e-003, 1.4549e-005
 394.03000, 91.41887, 5.1379e-003, 1.5616e-005
 394.53000, 91.56264, 5.1451e-003, 1.4765e-005
 395.03000, 91.70653, 5.1526e-003, 1.5637e-005
 395.53000, 91.85038, 5.1605e-003, 1.4642e-005
 396.03000, 91.99459, 5.1678e-003, 1.4803e-005
 396.53000, 92.13867, 5.1755e-003, 1.4528e-005
 397.03000, 92.28301, 5.1825e-003, 1.5551e-005
 397.53000, 92.42766, 5.1906e-003, 1.5721e-005
 398.03000, 92.57259, 5.1985e-003, 1.5141e-005
 398.53000, 92.71726, 5.2064e-003, 1.5327e-005
 399.03000, 92.86217, 5.2134e-003, 1.5039e-005
 399.53000, 93.00716, 5.2207e-003, 1.4620e-005
 400.03000, 93.15221, 5.2287e-003, 1.6603e-005
 400.53000, 93.29727, 5.2362e-003, 1.5079e-005
 401.03000, 93.44230, 5.2441e-003, 1.4561e-005
 401.53000, 93.58748, 5.2513e-003, 1.4988e-005
 402.03000, 93.73269, 5.2592e-003, 1.4682e-005
 402.53000, 93.87796, 5.2663e-003, 1.5044e-005
 403.03000, 94.02342, 5.2737e-003, 1.5101e-005
 403.53000, 94.16872, 5.2813e-003, 1.4426e-005
 404.03000, 94.31382, 5.2885e-003, 1.5716e-005
 404.53000, 94.45903, 5.2968e-003, 1.5728e-005
 405.03000, 94.60407, 5.3048e-003, 1.5175e-005
 405.53000, 94.74903, 5.3123e-003, 1.5538e-005
 406.03000, 94.89446, 5.3200e-003, 1.4954e-005
 406.53000, 95.04026, 5.3272e-003, 1.4783e-005
 407.03000, 95.18598, 5.3350e-003, 1.4712e-005
 407.53000, 95.33190, 5.3426e-003, 1.5207e-005
 408.03000, 95.47793, 5.3498e-003, 1.5760e-005
 408.53000, 95.62407, 5.3577e-003, 1.5300e-005
 409.03000, 95.76996, 5.3654e-003, 1.6782e-005
 409.53000, 95.91629, 5.3736e-003, 1.5282e-005
 410.03000, 96.06251, 5.3813e-003, 1.5431e-005
 410.53000, 96.20884, 5.3884e-003, 1.5114e-005
 411.03000, 96.35522, 5.3962e-003, 1.5186e-005
 411.53000, 96.50189, 5.4038e-003, 1.4516e-005
 412.03000, 96.64847, 5.4114e-003, 1.5199e-005
 412.53000, 96.79541, 5.4191e-003, 1.5459e-005
 413.03000, 96.94237, 5.4272e-003, 1.5590e-005
 413.53000, 97.08930, 5.4347e-003, 1.5446e-005
 414.03000, 97.23610, 5.4419e-003, 1.4598e-005
 414.53000, 97.38306, 5.4495e-003, 1.5247e-005
 415.03000, 97.52990, 5.4578e-003, 1.5340e-005
 415.53000, 97.67698, 5.4651e-003, 1.7137e-005
 416.03000, 97.82445, 5.4736e-003, 1.4640e-005
 416.53000, 97.97220, 5.4810e-003, 1.5637e-005
 417.03000, 98.12020, 5.4882e-003, 1.4981e-005
 417.53000, 98.26865, 5.4958e-003, 1.5454e-005
 418.03000, 98.41698, 5.5039e-003, 1.4742e-005
 418.53000, 98.56509, 5.5111e-003, 1.4838e-005
 419.03000, 98.71287, 5.5188e-003, 1.4790e-005
 419.53000, 98.86061, 5.5261e-003, 1.6631e-005
 420.03000, 99.00823, 5.5341e-003, 1.4491e-005
 420.53000, 99.15564, 5.5417e-003, 1.5212e-005
 421.03000, 99.30335, 5.5492e-003, 1.4750e-005
 421.53000, 99.45148, 5.5568e-003, 1.5420e-005
 422.03000, 99.59960, 5.5642e-003, 1.4393e-005
 422.53000, 99.74765, 5.5720e-003, 1.5800e-005
 423.03000, 99.89620, 5.5793e-003, 1.5266e-005
 423.53000,100.04462, 5.5868e-003, 1.4739e-005
 424.03000,100.19320, 5.5947e-003, 1.5006e-005
 424.53000,100.34138, 5.6022e-003, 1.6628e-005
 425.03000,100.48976, 5.6098e-003, 1.4536e-005
 425.53000,100.63794, 5.6174e-003, 1.5034e-005
 426.03000,100.78620, 5.6253e-003, 1.4466e-005
 426.53000,100.93456, 5.6325e-003, 1.5658e-005
 427.03000,101.08330, 5.6400e-003, 1.5051e-005
 427.53000,101.23206, 5.6475e-003, 1.4744e-005
 428.03000,101.38121, 5.6551e-003, 1.5359e-005
 428.53000,101.53024, 5.6626e-003, 1.4071e-005
 429.03000,101.67926, 5.6701e-003, 1.5698e-005
 429.53000,101.82860, 5.6780e-003, 1.6006e-005
 430.03000,101.97842, 5.6856e-003, 1.5064e-005
 430.53000,102.12856, 5.6930e-003, 1.5220e-005
 431.03000,102.27893, 5.7004e-003, 1.4522e-005
 431.53000,102.42952, 5.7083e-003, 1.5534e-005
 432.03000,102.57981, 5.7156e-003, 1.5091e-005
 432.53000,102.72988, 5.7232e-003, 1.5912e-005
 433.03000,102.87977, 5.7308e-003, 1.4953e-005
 433.53000,103.02989, 5.7381e-003, 1.4725e-005
 434.03000,103.18004, 5.7462e-003, 1.6914e-005
 434.53000,103.33003, 5.7535e-003, 1.4909e-005
 435.03000,103.48004, 5.7616e-003, 1.5480e-005
 435.53000,103.63002, 5.7691e-003, 1.5302e-005
 436.03000,103.77991, 5.7765e-003, 1.5634e-005
 436.53000,103.92965, 5.7839e-003, 1.4702e-005
 437.03000,104.07993, 5.7918e-003, 1.5703e-005
 437.53000,104.23034, 5.7997e-003, 1.5426e-005
 438.03000,104.38112, 5.8074e-003, 1.5235e-005
 438.53000,104.53265, 5.8147e-003, 1.5462e-005
 439.03000,104.68475, 5.8226e-003, 1.7534e-005
 439.53000,104.83737, 5.8310e-003, 1.6086e-005
 440.03000,104.99008, 5.8390e-003, 1.5566e-005
 440.53000,105.14275, 5.8469e-003, 1.6503e-005
 441.03000,105.29526, 5.8546e-003, 1.5958e-005
 441.53000,105.44750, 5.8631e-003, 1.5778e-005
 442.03000,105.59963, 5.8712e-003, 1.6906e-005
 442.53000,105.75206, 5.8797e-003, 1.6662e-005
 443.03000,105.90498, 5.8879e-003, 1.6557e-005
 443.53000,106.05828, 5.8962e-003, 1.6731e-005
 444.03000,106.21251, 5.9047e-003, 1.7388e-005
 444.53000,106.36734, 5.9131e-003, 1.5911e-005
 445.03000,106.52271, 5.9215e-003, 1.6683e-005
 445.53000,106.67861, 5.9299e-003, 1.6701e-005
 446.03000,106.83497, 5.9379e-003, 1.6186e-005
 446.53000,106.99181, 5.9457e-003, 1.7230e-005
 447.03000,107.14833, 5.9543e-003, 1.6481e-005
 447.53000,107.30459, 5.9622e-003, 1.5778e-005
 448.03000,107.46013, 5.9706e-003, 1.6271e-005
 448.53000,107.61484, 5.9785e-003, 1.5031e-005
 449.03000,107.76923, 5.9861e-003, 1.5041e-005
 449.53000,107.92328, 5.9936e-003, 1.5020e-005
 450.03000,108.07691, 6.0008e-003, 1.5893e-005
 450.53000,108.22997, 6.0086e-003, 1.4820e-005
 451.03000,108.38230, 6.0158e-003, 1.4170e-005
 451.53000,108.53370, 6.0230e-003, 1.5061e-005
 452.03000,108.68439, 6.0301e-003, 1.3666e-005
 452.53000,108.83455, 6.0372e-003, 1.4591e-005
 453.03000,108.98452, 6.0440e-003, 1.3942e-005
 453.53000,109.13375, 6.0514e-003, 1.3892e-005
 454.03000,109.28251, 6.0584e-003, 1.4606e-005
 454.53000,109.43082, 6.0654e-003, 1.3993e-005
 455.03000,109.57815, 6.0724e-003, 1.4362e-005
 455.53000,109.72484, 6.0803e-003, 1.5054e-005
 456.03000,109.87137, 6.0876e-003, 1.4785e-005
 456.53000,110.01773, 6.0943e-003, 1.4097e-005
 457.03000,110.16443, 6.1018e-003, 1.5633e-005
 457.53000,110.31136, 6.1095e-003, 1.4063e-005
 458.03000,110.45822, 6.1166e-003, 1.5189e-005
 458.53000,110.60507, 6.1233e-003, 1.4129e-005
 459.03000,110.75191, 6.1311e-003, 1.5007e-005
 459.53000,110.89857, 6.1388e-003, 1.5643e-005
 460.03000,111.04561, 6.1468e-003, 1.5451e-005
 460.53000,111.19283, 6.1541e-003, 1.4545e-005
 461.03000,111.34059, 6.1615e-003, 1.5125e-005
 461.53000,111.48863, 6.1693e-003, 1.4797e-005
 462.03000,111.63714, 6.1771e-003, 1.5130e-005
 462.53000,111.78616, 6.1844e-003, 1.5098e-005
 463.03000,111.93570, 6.1923e-003, 1.5594e-005
 463.53000,112.08533, 6.1999e-003, 1.5784e-005
 464.03000,112.23584, 6.2078e-003, 1.5191e-005
 464.53000,112.38608, 6.2154e-003, 1.6298e-005
 465.03000,112.53602, 6.2230e-003, 1.4663e-005
 465.53000,112.68617, 6.2305e-003, 1.4806e-005
 466.03000,112.83632, 6.2379e-003, 1.5972e-005
 466.53000,112.98630, 6.2455e-003, 1.5009e-005
 467.03000,113.13686, 6.2534e-003, 1.5134e-005
 467.53000,113.28794, 6.2602e-003, 1.5344e-005
 468.03000,113.43912, 6.2680e-003, 1.6518e-005
 468.53000,113.59028, 6.2759e-003, 1.5183e-005
 469.03000,113.74155, 6.2836e-003, 1.5698e-005
 469.53000,113.89294, 6.2912e-003, 1.4319e-005
 470.03000,114.04445, 6.2989e-003, 1.5371e-005
 470.53000,114.19673, 6.3064e-003, 1.5352e-005
 471.03000,114.34978, 6.3141e-003, 1.4864e-005
 471.53000,114.50303, 6.3215e-003, 1.5699e-005
 472.03000,114.65684, 6.3292e-003, 1.5286e-005
 472.53000,114.81131, 6.3372e-003, 1.6520e-005
 473.03000,114.96582, 6.3451e-003, 1.5666e-005
 473.53000,115.12055, 6.3529e-003, 1.5538e-005
 474.03000,115.27564, 6.3610e-003, 1.6002e-005
 474.53000,115.43045, 6.3686e-003, 1.5633e-005
 475.03000,115.58542, 6.3763e-003, 1.5171e-005
 475.53000,115.74050, 6.3839e-003, 1.4995e-005
 476.03000,115.89544, 6.3919e-003, 1.6045e-005
 476.53000,116.05057, 6.3993e-003, 1.5321e-005
 477.03000,116.20590, 6.4078e-003, 1.5719e-005
 477.53000,116.36168, 6.4156e-003, 1.5657e-005
 478.03000,116.51742, 6.4228e-003, 1.5485e-005
 478.53000,116.67372, 6.4312e-003, 1.5207e-005
 479.03000,116.83000, 6.4386e-003, 1.4950e-005
 479.53000,116.98620, 6.4464e-003, 1.5198e-005
 480.03000,117.14251, 6.4542e-003, 1.5371e-005
 480.53000,117.29922, 6.4617e-003, 1.4843e-005
 481.03000,117.45660, 6.4698e-003, 1.6296e-005
 481.53000,117.61429, 6.4778e-003, 1.5590e-005
 482.03000,117.77165, 6.4852e-003, 1.4955e-005
 482.53000,117.92961, 6.4931e-003, 1.5815e-005
 483.03000,118.08744, 6.5007e-003, 1.4490e-005
 483.53000,118.24502, 6.5084e-003, 1.5940e-005
 484.03000,118.40302, 6.5157e-003, 1.4976e-005
 484.53000,118.56158, 6.5236e-003, 1.5780e-005
 485.03000,118.72027, 6.5318e-003, 1.4581e-005
 485.53000,118.87872, 6.5391e-003, 1.5531e-005
 486.03000,119.03727, 6.5467e-003, 1.5254e-005
 486.53000,119.19618, 6.5547e-003, 1.6555e-005
 487.03000,119.35484, 6.5624e-003, 1.5053e-005
 487.53000,119.51381, 6.5702e-003, 1.5578e-005
 488.03000,119.67330, 6.5784e-003, 1.5358e-005
 488.53000,119.83254, 6.5861e-003, 1.5093e-005
 489.03000,119.99153, 6.5930e-003, 1.6047e-005
 489.53000,120.15095, 6.6017e-003, 1.4887e-005
 490.03000,120.30985, 6.6091e-003, 1.5441e-005
 490.53000,120.46890, 6.6171e-003, 1.5274e-005
 491.03000,120.62798, 6.6247e-003, 1.5772e-005
 491.53000,120.78726, 6.6323e-003, 1.4947e-005
 492.03000,120.94720, 6.6398e-003, 1.5886e-005
 492.53000,121.10724, 6.6478e-003, 1.5742e-005
 493.03000,121.26749, 6.6558e-003, 1.5760e-005
 493.53000,121.42795, 6.6636e-003, 1.5427e-005
 494.03000,121.58840, 6.6715e-003, 1.5909e-005
 494.53000,121.74883, 6.6787e-003, 1.5790e-005
 495.03000,121.90940, 6.6866e-003, 1.5674e-005
 495.53000,122.06972, 6.6943e-003, 1.5277e-005
 496.03000,122.22950, 6.7025e-003, 1.5775e-005
 496.53000,122.38955, 6.7105e-003, 1.6896e-005
 497.03000,122.54918, 6.7187e-003, 1.5713e-005
 497.53000,122.70901, 6.7259e-003, 1.4909e-005
 498.03000,122.86932, 6.7336e-003, 1.5668e-005
 498.53000,123.03019, 6.7414e-003, 1.4753e-005
 499.03000,123.19131, 6.7485e-003, 1.3501e-005
 499.53000,123.35261, 6.7560e-003, 1.5179e-005
 500.03000,123.51449, 6.7638e-003, 1.4947e-005
 500.53000,123.67642, 6.7712e-003, 1.4722e-005
 501.03000,123.83867, 6.7783e-003, 1.4829e-005
 501.53000,124.00072, 6.7859e-003, 1.4764e-005
 502.03000,124.16271, 6.7937e-003, 1.5758e-005
 502.53000,124.32429, 6.8011e-003, 1.5073e-005
 503.03000,124.48582, 6.8088e-003, 1.5146e-005
 503.53000,124.64724, 6.8161e-003, 1.5558e-005
 504.03000,124.80861, 6.8243e-003, 1.5772e-005
 504.53000,124.97058, 6.8322e-003, 1.5782e-005
 505.03000,125.13297, 6.8400e-003, 1.5287e-005
 505.53000,125.29533, 6.8475e-003, 1.5069e-005
 506.03000,125.45791, 6.8556e-003, 1.5629e-005
 506.53000,125.62039, 6.8631e-003, 1.6760e-005
 507.03000,125.78239, 6.8714e-003, 1.5823e-005
 507.53000,125.94495, 6.8795e-003, 1.5711e-005
 508.03000,126.10822, 6.8875e-003, 1.5918e-005
 508.53000,126.27218, 6.8954e-003, 1.6760e-005
 509.03000,126.43724, 6.9038e-003, 1.6358e-005
 509.53000,126.60307, 6.9121e-003, 1.6761e-005
 510.03000,126.76953, 6.9203e-003, 1.6166e-005
 510.53000,126.93634, 6.9284e-003, 1.7314e-005
 511.03000,127.10356, 6.9376e-003, 1.7219e-005
 511.53000,127.27000, 6.9457e-003, 1.6059e-005
 512.03000,127.43646, 6.9541e-003, 1.6720e-005
 512.53000,127.60324, 6.9619e-003, 1.5184e-005
 513.03000,127.76988, 6.9701e-003, 1.6480e-005
 513.53000,127.93647, 6.9780e-003, 1.6790e-005
 514.03000,128.10355, 6.9854e-003, 1.4776e-005
 514.53000,128.26993, 6.9932e-003, 1.5011e-005
 515.03000,128.43649, 7.0009e-003, 1.4828e-005
 515.53000,128.60258, 7.0090e-003, 1.5228e-005
 516.03000,128.76737, 7.0165e-003, 1.4618e-005
 516.53000,128.93135, 7.0240e-003, 1.4395e-005
 517.03000,129.09431, 7.0308e-003, 1.4653e-005
 517.53000,129.25611, 7.0383e-003, 1.4791e-005
 518.03000,129.41745, 7.0453e-003, 1.3548e-005
 518.53000,129.57843, 7.0522e-003, 1.4227e-005
 519.03000,129.73900, 7.0591e-003, 1.3986e-005
 519.53000,129.89842, 7.0657e-003, 1.3921e-005
 520.03000,130.05689, 7.0723e-003, 1.3599e-005
 520.53000,130.21457, 7.0795e-003, 1.3753e-005
 521.03000,130.37094, 7.0863e-003, 1.3279e-005
 521.53000,130.52685, 7.0929e-003, 1.3010e-005
 522.03000,130.68329, 7.0996e-003, 1.3555e-005
 522.53000,130.83945, 7.1068e-003, 1.4657e-005
 523.03000,130.99572, 7.1131e-003, 1.3449e-005
 523.53000,131.15189, 7.1202e-003, 1.4437e-005
 524.03000,131.30764, 7.1280e-003, 1.5958e-005
 524.53000,131.46305, 7.1351e-003, 1.3315e-005
 525.03000,131.61878, 7.1426e-003, 1.3883e-005
 525.53000,131.77456, 7.1496e-003, 1.5241e-005
 526.03000,131.93064, 7.1567e-003, 1.4159e-005
 526.53000,132.08668, 7.1638e-003, 1.4826e-005
 527.03000,132.24266, 7.1713e-003, 1.5866e-005
 527.53000,132.39889, 7.1791e-003, 1.3804e-005
 528.03000,132.55524, 7.1863e-003, 1.5952e-005
 528.53000,132.71209, 7.1934e-003, 1.5067e-005
 529.03000,132.86952, 7.2010e-003, 1.4580e-005
 529.53000,133.02767, 7.2085e-003, 1.4173e-005
 530.03000,133.18663, 7.2160e-003, 1.4628e-005
 530.53000,133.34624, 7.2235e-003, 1.5860e-005
 531.03000,133.50648, 7.2306e-003, 1.4238e-005
 531.53000,133.66687, 7.2382e-003, 1.4556e-005
 532.03000,133.82714, 7.2460e-003, 1.4527e-005
 532.53000,133.98740, 7.2535e-003, 1.6404e-005
 533.03000,134.14744, 7.2615e-003, 1.6171e-005
 533.53000,134.30796, 7.2687e-003, 1.5633e-005
 534.03000,134.46860, 7.2764e-003, 1.4499e-005
 534.53000,134.62946, 7.2838e-003, 1.4643e-005
 535.03000,134.79087, 7.2918e-003, 1.4247e-005
 535.53000,134.95245, 7.2987e-003, 1.4972e-005
 536.03000,135.11451, 7.3071e-003, 1.5861e-005
 536.53000,135.27741, 7.3143e-003, 1.4630e-005
 537.03000,135.44063, 7.3222e-003, 1.5085e-005
 537.53000,135.60387, 7.3293e-003, 1.6238e-005
 538.03000,135.76729, 7.3369e-003, 1.6572e-005
 538.53000,135.93078, 7.3446e-003, 1.5052e-005
 539.03000,136.09425, 7.3517e-003, 1.4595e-005
 539.53000,136.25788, 7.3597e-003, 1.5593e-005
 540.03000,136.42180, 7.3669e-003, 1.5117e-005
 540.53000,136.58562, 7.3752e-003, 1.4940e-005
 541.03000,136.74964, 7.3826e-003, 1.4392e-005
 541.53000,136.91380, 7.3903e-003, 1.5444e-005
 542.03000,137.07871, 7.3975e-003, 1.5335e-005
 542.53000,137.24406, 7.4052e-003, 1.4980e-005
 543.03000,137.41004, 7.4122e-003, 1.4838e-005
 543.53000,137.57650, 7.4205e-003, 1.5163e-005
 544.03000,137.74347, 7.4278e-003, 1.5548e-005
 544.53000,137.91036, 7.4357e-003, 1.5428e-005
 545.03000,138.07726, 7.4437e-003, 1.6137e-005
 545.53000,138.24385, 7.4513e-003, 1.4747e-005
 546.03000,138.41001, 7.4587e-003, 1.6212e-005
 546.53000,138.57623, 7.4665e-003, 1.5003e-005
 547.03000,138.74277, 7.4742e-003, 1.4503e-005
 547.53000,138.90932, 7.4820e-003, 1.4229e-005
 548.03000,139.07674, 7.4893e-003, 1.5200e-005
 548.53000,139.24434, 7.4972e-003, 1.7725e-005
 549.03000,139.41196, 7.5048e-003, 1.5011e-005
 549.53000,139.57947, 7.5124e-003, 1.5011e-005
 550.03000,139.74684, 7.5203e-003, 1.4858e-005
 550.53000,139.91434, 7.5280e-003, 1.5490e-005
 551.03000,140.08209, 7.5354e-003, 1.5338e-005
 551.53000,140.25031, 7.5427e-003, 1.5414e-005
 552.03000,140.41890, 7.5506e-003, 1.4976e-005
 552.53000,140.58748, 7.5580e-003, 1.5040e-005
 553.03000,140.75571, 7.5661e-003, 1.6168e-005
 553.53000,140.92405, 7.5738e-003, 1.5850e-005
 554.03000,141.09226, 7.5816e-003, 1.5780e-005
 554.53000,141.26077, 7.5887e-003, 1.4998e-005
 555.03000,141.42952, 7.5957e-003, 1.4310e-005
 555.53000,141.59824, 7.6038e-003, 1.5430e-005
 556.03000,141.76716, 7.6112e-003, 1.5348e-005
 556.53000,141.93604, 7.6196e-003, 1.5989e-005
 557.03000,142.10494, 7.6269e-003, 1.5009e-005
 557.53000,142.27410, 7.6345e-003, 1.4809e-005
 558.03000,142.44325, 7.6425e-003, 1.5413e-005
 558.53000,142.61228, 7.6496e-003, 1.6099e-005
 559.03000,142.78142, 7.6573e-003, 1.4841e-005
 559.53000,142.95060, 7.6652e-003, 1.6248e-005
 560.03000,143.11989, 7.6730e-003, 1.5409e-005
 560.53000,143.28939, 7.6807e-003, 1.6127e-005
 561.03000,143.45892, 7.6888e-003, 1.6306e-005
 561.53000,143.62893, 7.6967e-003, 1.5051e-005
 562.03000,143.79902, 7.7044e-003, 1.4520e-005
 562.53000,143.96926, 7.7121e-003, 1.5058e-005
 563.03000,144.13896, 7.7198e-003, 1.5083e-005
 563.53000,144.30845, 7.7274e-003, 1.5925e-005
 564.03000,144.47797, 7.7355e-003, 1.4909e-005
 564.53000,144.64761, 7.7435e-003, 1.5916e-005
 565.03000,144.81782, 7.7507e-003, 1.5834e-005
 565.53000,144.98824, 7.7586e-003, 1.5372e-005
 566.03000,145.15882, 7.7662e-003, 1.5977e-005
 566.53000,145.32957, 7.7737e-003, 1.4925e-005
 567.03000,145.50041, 7.7815e-003, 1.4923e-005
 567.53000,145.67189, 7.7888e-003, 1.5782e-005
 568.03000,145.84348, 7.7964e-003, 1.5594e-005
 568.53000,146.01512, 7.8043e-003, 1.5356e-005
 569.03000,146.18730, 7.8123e-003, 1.5825e-005
 569.53000,146.35908, 7.8196e-003, 1.5503e-005
 570.03000,146.53033, 7.8271e-003, 1.4626e-005
 570.53000,146.70128, 7.8351e-003, 1.5842e-005
 571.03000,146.87151, 7.8426e-003, 1.4873e-005
 571.53000,147.04219, 7.8500e-003, 1.5454e-005
 572.03000,147.21326, 7.8574e-003, 1.4940e-005
 572.53000,147.38479, 7.8653e-003, 1.6374e-005
 573.03000,147.55669, 7.8729e-003, 1.5117e-005
 573.53000,147.72813, 7.8812e-003, 1.4662e-005
 574.03000,147.89900, 7.8888e-003, 1.5742e-005
 574.53000,148.07002, 7.8962e-003, 1.6040e-005
 575.03000,148.24081, 7.9040e-003, 1.4864e-005
 575.53000,148.41198, 7.9117e-003, 1.5736e-005
 576.03000,148.58389, 7.9193e-003, 1.6139e-005
 576.53000,148.75589, 7.9271e-003, 1.4588e-005
 577.03000,148.92778, 7.9348e-003, 1.5495e-005
 577.53000,149.09991, 7.9429e-003, 1.5460e-005
 578.03000,149.27198, 7.9501e-003, 1.5683e-005
 578.53000,149.44417, 7.9577e-003, 1.5648e-005
 579.03000,149.61674, 7.9656e-003, 1.5587e-005
 579.53000,149.78921, 7.9732e-003, 1.5185e-005
 580.03000,149.96192, 7.9807e-003, 1.5942e-005
 580.53000,150.13458, 7.9883e-003, 1.3614e-005
 581.03000,150.30709, 7.9968e-003, 1.7446e-005
 581.53000,150.47964, 8.0042e-003, 1.5206e-005
 582.03000,150.65205, 8.0121e-003, 1.5015e-005
 582.53000,150.82459, 8.0194e-003, 1.5228e-005
 583.03000,150.99747, 8.0276e-003, 1.6728e-005
 583.53000,151.17056, 8.0349e-003, 1.4696e-005
 584.03000,151.34332, 8.0425e-003, 1.4803e-005
 584.53000,151.51639, 8.0498e-003, 1.5512e-005
 585.03000,151.68860, 8.0577e-003, 1.4460e-005
 585.53000,151.86063, 8.0653e-003, 1.7584e-005
 586.03000,152.03309, 8.0737e-003, 1.5272e-005
 586.53000,152.20516, 8.0815e-003, 1.4583e-005
 587.03000,152.37795, 8.0889e-003, 1.5476e-005
 587.53000,152.55074, 8.0966e-003, 1.5360e-005
 588.03000,152.72338, 8.1039e-003, 1.5357e-005
 588.53000,152.89608, 8.1118e-003, 1.5301e-005
 589.03000,153.06888, 8.1194e-003, 1.5503e-005
 589.53000,153.24132, 8.1276e-003, 1.5745e-005
 590.03000,153.41469, 8.1357e-003, 1.6045e-005
 590.53000,153.58819, 8.1428e-003, 1.6194e-005
 591.03000,153.76166, 8.1506e-003, 1.5345e-005
 591.53000,153.93557, 8.1585e-003, 1.5105e-005
 592.03000,154.10929, 8.1662e-003, 1.4726e-005
 592.53000,154.28267, 8.1740e-003, 1.6308e-005
 593.03000,154.45565, 8.1820e-003, 1.5753e-005
 593.53000,154.62810, 8.1897e-003, 1.6282e-005
 594.03000,154.80058, 8.1969e-003, 1.5131e-005
 594.53000,154.97315, 8.2046e-003, 1.4698e-005
 595.03000,155.14622, 8.2121e-003, 1.5781e-005
 595.53000,155.31983, 8.2201e-003, 1.5795e-005
 596.03000,155.49351, 8.2273e-003, 1.5439e-005
 596.53000,155.66701, 8.2350e-003, 1.4988e-005
 597.03000,155.84078, 8.2430e-003, 1.4924e-005
 597.53000,156.01444, 8.2507e-003, 1.5282e-005
 598.03000,156.18800, 8.2580e-003, 1.5757e-005
 598.53000,156.36193, 8.2657e-003, 1.5371e-005
 599.03000,156.53554, 8.2735e-003, 1.4954e-005
 599.53000,156.70942, 8.2810e-003, 1.5669e-005
 600.03000,156.88340, 8.2891e-003, 1.5908e-005
 600.53000,157.05744, 8.2967e-003, 1.4825e-005
 601.03000,157.23138, 8.3042e-003, 1.5802e-005
 601.53000,157.40502, 8.3116e-003, 1.5484e-005
 602.03000,157.57912, 8.3195e-003, 1.4761e-005
 602.53000,157.75291, 8.3273e-003, 1.6922e-005
 603.03000,157.92728, 8.3350e-003, 1.4382e-005
 603.53000,158.10197, 8.3425e-003, 1.6246e-005
 604.03000,158.27647, 8.3504e-003, 1.5352e-005
 604.53000,158.45144, 8.3577e-003, 1.5050e-005
 605.03000,158.62655, 8.3657e-003, 1.5344e-005
 605.53000,158.80154, 8.3734e-003, 1.4898e-005
 606.03000,158.97647, 8.3809e-003, 1.5163e-005
 606.53000,159.15143, 8.3885e-003, 1.5177e-005
 607.03000,159.32646, 8.3964e-003, 1.7530e-005
 607.53000,159.50162, 8.4043e-003, 1.4143e-005
 608.03000,159.67680, 8.4118e-003, 1.5496e-005
 608.53000,159.85156, 8.4189e-003, 1.5830e-005
 609.03000,160.02595, 8.4268e-003, 1.6461e-005
 609.53000,160.20046, 8.4348e-003, 1.5921e-005
 610.03000,160.37443, 8.4425e-003, 1.4743e-005
 610.53000,160.54906, 8.4506e-003, 1.5585e-005
 611.03000,160.72412, 8.4584e-003, 1.5638e-005
 611.53000,160.89958, 8.4658e-003, 1.5157e-005
 612.03000,161.07603, 8.4739e-003, 1.6390e-005
 612.53000,161.25287, 8.4817e-003, 1.5816e-005
 613.03000,161.43022, 8.4901e-003, 1.5596e-005
 613.53000,161.60813, 8.4978e-003, 1.6346e-005
 614.03000,161.78642, 8.5052e-003, 1.5870e-005
 614.53000,161.96487, 8.5133e-003, 1.6507e-005
 615.03000,162.14379, 8.5221e-003, 1.6792e-005
 615.53000,162.32309, 8.5296e-003, 1.6703e-005
 616.03000,162.50292, 8.5386e-003, 1.5842e-005
 616.53000,162.68311, 8.5468e-003, 1.6069e-005
 617.03000,162.86318, 8.5546e-003, 1.5328e-005
 617.53000,163.04311, 8.5622e-003, 1.5227e-005
 618.03000,163.22256, 8.5698e-003, 1.4690e-005
 618.53000,163.40211, 8.5774e-003, 1.5168e-005
 619.03000,163.58104, 8.5855e-003, 1.6736e-005
 619.53000,163.75925, 8.5929e-003, 1.4003e-005
 620.03000,163.93685, 8.6005e-003, 1.4766e-005
 620.53000,164.11319, 8.6076e-003, 1.4478e-005
 621.03000,164.28898, 8.6145e-003, 1.4072e-005
 621.53000,164.46379, 8.6220e-003, 1.4420e-005
 622.03000,164.63766, 8.6291e-003, 1.4754e-005
 622.53000,164.81045, 8.6362e-003, 1.4371e-005
 623.03000,164.98263, 8.6432e-003, 1.4711e-005
 623.53000,165.15417, 8.6507e-003, 1.4316e-005
 624.03000,165.32566, 8.6575e-003, 1.4174e-005
 624.53000,165.49698, 8.6657e-003, 1.6133e-005
 625.03000,165.66769, 8.6728e-003, 1.5521e-005
 625.53000,165.83820, 8.6804e-003, 1.5272e-005
 626.03000,166.00782, 8.6873e-003, 1.4575e-005
 626.53000,166.17772, 8.6948e-003, 1.4751e-005
 627.03000,166.34812, 8.7027e-003, 1.4127e-005
 627.53000,166.51883, 8.7101e-003, 1.4913e-005
 628.03000,166.69028, 8.7174e-003, 1.6958e-005
 628.53000,166.86205, 8.7253e-003, 1.4951e-005
 629.03000,167.03411, 8.7328e-003, 1.5422e-005
 629.53000,167.20642, 8.7406e-003, 1.5473e-005
 630.03000,167.37902, 8.7477e-003, 1.4376e-005
 630.53000,167.55158, 8.7557e-003, 1.5182e-005
 631.03000,167.72458, 8.7635e-003, 1.4725e-005
 631.53000,167.89748, 8.7704e-003, 1.5060e-005
 632.03000,168.07097, 8.7781e-003, 1.5522e-005
 632.53000,168.24460, 8.7859e-003, 1.5515e-005
 633.03000,168.41809, 8.7941e-003, 1.6355e-005
 633.53000,168.59232, 8.8013e-003, 1.4874e-005
 634.03000,168.76691, 8.8090e-003, 1.6345e-005
 634.53000,168.94181, 8.8168e-003, 1.5350e-005
 635.03000,169.11708, 8.8242e-003, 1.4339e-005
 635.53000,169.29224, 8.8321e-003, 1.5652e-005
 636.03000,169.46712, 8.8396e-003, 1.5379e-005
 636.53000,169.64215, 8.8469e-003, 1.6310e-005
 637.03000,169.81674, 8.8558e-003, 1.5585e-005
 637.53000,169.99177, 8.8633e-003, 1.4945e-005
 638.03000,170.16747, 8.8707e-003, 1.5430e-005
 638.53000,170.34342, 8.8787e-003, 1.4943e-005
 639.03000,170.51998, 8.8863e-003, 1.5405e-005
 639.53000,170.69672, 8.8942e-003, 1.5220e-005
 640.03000,170.87348, 8.9019e-003, 1.6442e-005
 640.53000,171.05074, 8.9102e-003, 1.5459e-005
 641.03000,171.22838, 8.9178e-003, 1.5627e-005
 641.53000,171.40633, 8.9255e-003, 1.5826e-005
 642.03000,171.58419, 8.9332e-003, 1.5814e-005
 642.53000,171.76207, 8.9414e-003, 1.5674e-005
 643.03000,171.94018, 8.9493e-003, 1.5534e-005
 643.53000,172.11852, 8.9569e-003, 1.4981e-005
 644.03000,172.29734, 8.9646e-003, 1.6063e-005
 644.53000,172.47635, 8.9731e-003, 1.7402e-005
 645.03000,172.65566, 8.9811e-003, 1.6795e-005
 645.53000,172.83500, 8.9886e-003, 1.5852e-005
 646.03000,173.01495, 8.9966e-003, 1.5534e-005
 646.53000,173.19494, 9.0038e-003, 1.6085e-005
 647.03000,173.37478, 9.0123e-003, 1.6052e-005
 647.53000,173.55459, 9.0200e-003, 1.5294e-005
 648.03000,173.73383, 9.0271e-003, 1.5608e-005
 648.53000,173.91310, 9.0362e-003, 1.7246e-005
 649.03000,174.09238, 9.0437e-003, 1.4737e-005
 649.53000,174.27205, 9.0510e-003, 1.5181e-005
 650.03000,174.45198, 9.0592e-003, 1.6134e-005
 650.53000,174.63212, 9.0666e-003, 1.5299e-005
 651.03000,174.81220, 9.0745e-003, 1.5842e-005
 651.53000,174.99159, 9.0826e-003, 1.5813e-005
 652.03000,175.17110, 9.0900e-003, 1.6459e-005
 652.53000,175.35068, 9.0987e-003, 1.5760e-005
 653.03000,175.53049, 9.1063e-003, 1.5841e-005
 653.53000,175.71109, 9.1144e-003, 1.5623e-005
 654.03000,175.89239, 9.1217e-003, 1.4638e-005
 654.53000,176.07344, 9.1295e-003, 1.5527e-005
 655.03000,176.25409, 9.1378e-003, 1.6500e-005
 655.53000,176.43462, 9.1460e-003, 1.5116e-005
 656.03000,176.61461, 9.1534e-003, 1.6100e-005
 656.53000,176.79523, 9.1610e-003, 1.5719e-005
 657.03000,176.97662, 9.1690e-003, 1.5503e-005
 657.53000,177.15806, 9.1765e-003, 1.4370e-005
 658.03000,177.33970, 9.1844e-003, 1.5518e-005
 658.53000,177.52114, 9.1925e-003, 1.5151e-005
 659.03000,177.70223, 9.1999e-003, 1.6953e-005
 659.53000,177.88364, 9.2080e-003, 1.5470e-005
 660.03000,178.06505, 9.2158e-003, 1.5446e-005
 660.53000,178.24660, 9.2238e-003, 1.6281e-005
 661.03000,178.42832, 9.2317e-003, 1.5791e-005
 661.53000,178.60994, 9.2390e-003, 1.4845e-005
 662.03000,178.79146, 9.2469e-003, 1.5131e-005
 662.53000,178.97308, 9.2547e-003, 1.6408e-005
 663.03000,179.15476, 9.2622e-003, 1.6379e-005
 663.53000,179.33642, 9.2713e-003, 1.7313e-005
 664.03000,179.51848, 9.2792e-003, 1.5989e-005
 664.53000,179.70125, 9.2871e-003, 1.5753e-005
 665.03000,179.88400, 9.2949e-003, 1.5560e-005
 665.53000,180.06751, 9.3031e-003, 1.4921e-005
 666.03000,180.25134, 9.3108e-003, 1.6184e-005
 666.53000,180.43463, 9.3189e-003, 1.6488e-005
 667.03000,180.61773, 9.3273e-003, 1.5303e-005
 667.53000,180.80052, 9.3353e-003, 1.5751e-005
 668.03000,180.98263, 9.3423e-003, 1.5292e-005
 668.53000,181.16509, 9.3507e-003, 1.5328e-005
 669.03000,181.34804, 9.3589e-003, 1.5932e-005
 669.53000,181.53073, 9.3660e-003, 1.5528e-005
 670.03000,181.71375, 9.3740e-003, 1.5106e-005
 670.53000,181.89688, 9.3819e-003, 1.5650e-005
 671.03000,182.08005, 9.3898e-003, 1.7796e-005
 671.53000,182.26352, 9.3988e-003, 1.5253e-005
 672.03000,182.44733, 9.4063e-003, 1.5970e-005
 672.53000,182.63168, 9.4143e-003, 1.5704e-005
 673.03000,182.81634, 9.4221e-003, 1.4941e-005
 673.53000,183.00085, 9.4301e-003, 1.7029e-005
 674.03000,183.18495, 9.4373e-003, 1.5749e-005
 674.53000,183.36860, 9.4464e-003, 1.6547e-005
 675.03000,183.55150, 9.4540e-003, 1.5835e-005
 675.53000,183.73470, 9.4616e-003, 1.5559e-005
 676.03000,183.91810, 9.4694e-003, 1.5443e-005
 676.53000,184.10143, 9.4776e-003, 1.5658e-005
 677.03000,184.28532, 9.4851e-003, 1.6140e-005
 677.53000,184.46880, 9.4926e-003, 1.5926e-005
 678.03000,184.65208, 9.5017e-003, 1.5552e-005
 678.53000,184.83570, 9.5089e-003, 1.5308e-005
 679.03000,185.01955, 9.5172e-003, 1.4578e-005
 679.53000,185.20381, 9.5249e-003, 1.5926e-005
 680.03000,185.38850, 9.5329e-003, 1.5496e-005
 680.53000,185.57329, 9.5402e-003, 1.5174e-005
 681.03000,185.75816, 9.5485e-003, 1.6703e-005
 681.53000,185.94295, 9.5567e-003, 1.7418e-005
 682.03000,186.12765, 9.5647e-003, 1.6060e-005
 682.53000,186.31236, 9.5724e-003, 1.5161e-005
 683.03000,186.49699, 9.5806e-003, 1.5852e-005
 683.53000,186.68116, 9.5879e-003, 1.5315e-005
 684.03000,186.86620, 9.5964e-003, 1.5418e-005
 684.53000,187.05181, 9.6039e-003, 1.6781e-005
 685.03000,187.23776, 9.6121e-003, 1.4537e-005
 685.53000,187.42482, 9.6196e-003, 1.5517e-005
 686.03000,187.61142, 9.6276e-003, 1.5924e-005
 686.53000,187.79795, 9.6358e-003, 1.5825e-005
 687.03000,187.98503, 9.6437e-003, 1.5242e-005
 687.53000,188.17181, 9.6514e-003, 1.5858e-005
 688.03000,188.35839, 9.6591e-003, 1.4870e-005
 688.53000,188.54473, 9.6671e-003, 1.5703e-005
 689.03000,188.73036, 9.6749e-003, 1.5364e-005
 689.53000,188.91561, 9.6827e-003, 1.5139e-005
 690.03000,189.10096, 9.6906e-003, 1.6030e-005
 690.53000,189.28543, 9.6987e-003, 1.6024e-005
 691.03000,189.47021, 9.7063e-003, 1.4843e-005
 691.53000,189.65534, 9.7138e-003, 1.5327e-005
 692.03000,189.84087, 9.7216e-003, 1.5733e-005
 692.53000,190.02808, 9.7307e-003, 1.9176e-005
 693.03000,190.21588, 9.7390e-003, 1.6865e-005
 693.53000,190.40434, 9.7468e-003, 1.5928e-005
 694.03000,190.59389, 9.7551e-003, 1.6349e-005
 694.53000,190.78478, 9.7634e-003, 1.6945e-005
 695.03000,190.97631, 9.7723e-003, 1.9527e-005
 695.53000,191.16906, 9.7807e-003, 1.7477e-005
 696.03000,191.36246, 9.7889e-003, 1.7633e-005
 696.53000,191.55629, 9.7979e-003, 1.6997e-005
 697.03000,191.75081, 9.8066e-003, 1.7456e-005
 697.53000,191.94582, 9.8147e-003, 1.7352e-005
 698.03000,192.14121, 9.8234e-003, 1.8045e-005
 698.53000,192.33733, 9.8320e-003, 1.6528e-005
 699.03000,192.53358, 9.8402e-003, 1.6168e-005
 699.53000,192.73000, 9.8485e-003, 1.6408e-005
 700.03000,192.92613, 9.8563e-003, 1.6282e-005
 700.53000,193.12108, 9.8644e-003, 1.6022e-005
 701.03000,193.31518, 9.8721e-003, 1.6200e-005
 701.53000,193.50811, 9.8805e-003, 1.7392e-005
 702.03000,193.70001, 9.8886e-003, 1.4618e-005
 702.53000,193.89062, 9.8957e-003, 1.5009e-005
 703.03000,194.07991, 9.9035e-003, 1.4917e-005
 703.53000,194.26795, 9.9105e-003, 1.4959e-005
 704.03000,194.45514, 9.9179e-003, 1.5151e-005
 704.53000,194.64157, 9.9254e-003, 1.4892e-005
 705.03000,194.82722, 9.9323e-003, 1.4535e-005
 705.53000,195.01217, 9.9398e-003, 1.5516e-005
 706.03000,195.19643, 9.9482e-003, 1.5234e-005
 706.53000,195.38041, 9.9552e-003, 1.3813e-005
 707.03000,195.56458, 9.9627e-003, 1.4773e-005
 707.53000,195.74844, 9.9701e-003, 1.5243e-005
 708.03000,195.93233, 9.9784e-003, 1.4819e-005
 708.53000,196.11587, 9.9857e-003, 1.4428e-005
 709.03000,196.29941, 9.9932e-003, 1.4342e-005
 709.53000,196.48319, 1.0001e-002, 1.6705e-005
 710.03000,196.66706, 1.0009e-002, 1.6096e-005
 710.53000,196.85160, 1.0017e-002, 1.5537e-005
 711.03000,197.03613, 1.0024e-002, 1.5044e-005
 711.53000,197.22112, 1.0032e-002, 1.4413e-005
 712.03000,197.40629, 1.0040e-002, 1.5935e-005
 712.53000,197.59150, 1.0047e-002, 1.5002e-005
 713.03000,197.77705, 1.0055e-002, 1.7170e-005
 713.53000,197.96246, 1.0063e-002, 1.5535e-005
 714.03000,198.14799, 1.0070e-002, 1.4120e-005
 714.53000,198.33423, 1.0078e-002, 1.4856e-005
 715.03000,198.52090, 1.0086e-002, 1.6626e-005
 715.53000,198.70780, 1.0093e-002, 1.4397e-005
 716.03000,198.89521, 1.0101e-002, 1.5162e-005
 716.53000,199.08259, 1.0109e-002, 1.5504e-005
 717.03000,199.27075, 1.0116e-002, 1.5063e-005
 717.53000,199.45938, 1.0125e-002, 1.5484e-005
 718.03000,199.64794, 1.0133e-002, 1.5882e-005
 718.53000,199.83643, 1.0140e-002, 1.5940e-005
 719.03000,200.02449, 1.0148e-002, 1.4537e-005
 719.53000,200.21241, 1.0156e-002, 1.4467e-005
 720.03000,200.40024, 1.0164e-002, 1.6223e-005
 720.53000,200.58780, 1.0172e-002, 1.5849e-005
 721.03000,200.77552, 1.0179e-002, 1.5877e-005
 721.53000,200.96350, 1.0187e-002, 1.6621e-005
 722.03000,201.15171, 1.0195e-002, 1.5242e-005
 722.53000,201.34059, 1.0202e-002, 1.4733e-005
 723.03000,201.52932, 1.0210e-002, 1.5829e-005
 723.53000,201.71826, 1.0218e-002, 1.5222e-005
 724.03000,201.90682, 1.0226e-002, 1.6038e-005
 724.53000,202.09575, 1.0233e-002, 1.4945e-005
 725.03000,202.28491, 1.0241e-002, 1.5310e-005
 725.53000,202.47383, 1.0248e-002, 1.4950e-005
 726.03000,202.66387, 1.0256e-002, 1.6594e-005
 726.53000,202.85408, 1.0264e-002, 1.4518e-005
 727.03000,203.04498, 1.0271e-002, 1.4866e-005
 727.53000,203.23604, 1.0279e-002, 1.5526e-005
 728.03000,203.42672, 1.0287e-002, 1.5073e-005
 728.53000,203.61747, 1.0294e-002, 1.4056e-005
 729.03000,203.80787, 1.0302e-002, 1.4833e-005
 729.53000,203.99828, 1.0309e-002, 1.6280e-005
 730.03000,204.18843, 1.0318e-002, 1.6001e-005
 730.53000,204.37830, 1.0325e-002, 1.4712e-005
 731.03000,204.56855, 1.0332e-002, 1.5026e-005
 731.53000,204.75904, 1.0340e-002, 1.5299e-005
 732.03000,204.94970, 1.0348e-002, 1.4939e-005
 732.53000,205.14009, 1.0355e-002, 1.4003e-005
 733.03000,205.33073, 1.0363e-002, 1.6514e-005
 733.53000,205.52161, 1.0371e-002, 1.4954e-005
 734.03000,205.71290, 1.0378e-002, 1.5319e-005
 734.53000,205.90480, 1.0386e-002, 1.4218e-005
 735.03000,206.09661, 1.0393e-002, 1.5648e-005
 735.53000,206.28866, 1.0401e-002, 1.3573e-005
 736.03000,206.48064, 1.0408e-002, 1.5514e-005
 736.53000,206.67258, 1.0416e-002, 1.4897e-005
 737.03000,206.86450, 1.0424e-002, 1.7089e-005
 737.53000,207.05677, 1.0432e-002, 1.4775e-005
 738.03000,207.24931, 1.0440e-002, 1.5029e-005
 738.53000,207.44199, 1.0447e-002, 1.4995e-005
 739.03000,207.63420, 1.0455e-002, 1.5420e-005
 739.53000,207.82588, 1.0462e-002, 1.5070e-005
 740.03000,208.01750, 1.0470e-002, 1.6044e-005
 740.53000,208.20873, 1.0478e-002, 1.5660e-005
 741.03000,208.40003, 1.0485e-002, 1.6879e-005
 741.53000,208.59194, 1.0493e-002, 1.5164e-005
 742.03000,208.78391, 1.0501e-002, 1.4230e-005
 742.53000,208.97639, 1.0508e-002, 1.5718e-005
 743.03000,209.16865, 1.0516e-002, 1.4521e-005
 743.53000,209.36016, 1.0523e-002, 1.6527e-005
 744.03000,209.55135, 1.0532e-002, 1.5728e-005
 744.53000,209.74269, 1.0539e-002, 1.4303e-005
 745.03000,209.93425, 1.0547e-002, 1.5531e-005
 745.53000,210.12668, 1.0555e-002, 1.5158e-005
 746.03000,210.31908, 1.0562e-002, 1.5100e-005
 746.53000,210.51179, 1.0570e-002, 1.5507e-005
 747.03000,210.70418, 1.0578e-002, 1.4930e-005
 747.53000,210.89659, 1.0585e-002, 1.3831e-005
 748.03000,211.08889, 1.0592e-002, 1.4890e-005
 748.53000,211.28081, 1.0600e-002, 1.4245e-005
 749.03000,211.47239, 1.0608e-002, 1.6046e-005
 749.53000,211.66375, 1.0616e-002, 1.5631e-005
 750.03000,211.85565, 1.0623e-002, 1.5524e-005
 750.53000,212.04808, 1.0631e-002, 1.4958e-005
 751.03000,212.24031, 1.0638e-002, 1.5626e-005
 751.53000,212.43185, 1.0646e-002, 1.4724e-005
 752.03000,212.62282, 1.0654e-002, 1.6839e-005
 752.53000,212.81360, 1.0661e-002, 1.4839e-005
 753.03000,213.00495, 1.0669e-002, 1.5332e-005
 753.53000,213.19648, 1.0677e-002, 1.4081e-005
 754.03000,213.38849, 1.0684e-002, 1.4613e-005
 754.53000,213.58070, 1.0692e-002, 1.5532e-005
 755.03000,213.77317, 1.0699e-002, 1.5340e-005
 755.53000,213.96588, 1.0708e-002, 1.7066e-005
 756.03000,214.15894, 1.0715e-002, 1.5257e-005
 756.53000,214.35250, 1.0723e-002, 1.4658e-005
 757.03000,214.54601, 1.0730e-002, 1.5963e-005
 757.53000,214.73969, 1.0738e-002, 1.4815e-005
 758.03000,214.93306, 1.0745e-002, 1.6351e-005
 758.53000,215.12613, 1.0753e-002, 1.4086e-005
 759.03000,215.31941, 1.0761e-002, 1.8936e-005
 759.53000,215.51200, 1.0769e-002, 1.5505e-005
 760.03000,215.70486, 1.0777e-002, 1.5198e-005
 760.53000,215.89779, 1.0784e-002, 1.3736e-005
 761.03000,216.09049, 1.0792e-002, 1.5346e-005
 761.53000,216.28284, 1.0800e-002, 1.4342e-005
 762.03000,216.47532, 1.0807e-002, 1.5613e-005
 762.53000,216.66821, 1.0815e-002, 1.9033e-005
 763.03000,216.86112, 1.0823e-002, 1.5693e-005
 763.53000,217.05366, 1.0831e-002, 1.6427e-005
 764.03000,217.24594, 1.0839e-002, 1.3920e-005
 764.53000,217.43819, 1.0846e-002, 1.7262e-005
 765.03000,217.63173, 1.0854e-002, 1.5247e-005
 765.53000,217.82662, 1.0862e-002, 1.6222e-005
 766.03000,218.02239, 1.0870e-002, 1.5924e-005
 766.53000,218.21872, 1.0878e-002, 1.5666e-005
 767.03000,218.41523, 1.0887e-002, 1.5698e-005
 767.53000,218.61222, 1.0895e-002, 1.6021e-005
 768.03000,218.80984, 1.0904e-002, 1.7078e-005
 768.53000,219.00828, 1.0912e-002, 1.6301e-005
 769.03000,219.20767, 1.0920e-002, 1.7175e-005
 769.53000,219.40802, 1.0928e-002, 1.5398e-005
 770.03000,219.60823, 1.0936e-002, 1.6794e-005
 770.53000,219.80841, 1.0944e-002, 1.5043e-005
 771.03000,220.00760, 1.0952e-002, 1.6961e-005
 771.53000,220.20645, 1.0960e-002, 1.4989e-005
 772.03000,220.40461, 1.0968e-002, 1.9541e-005
 772.53000,220.60159, 1.0976e-002, 1.4454e-005
 773.03000,220.79702, 1.0984e-002, 1.4901e-005
 773.53000,220.99094, 1.0991e-002, 1.3869e-005
 774.03000,221.18338, 1.0998e-002, 1.4848e-005
 774.53000,221.37424, 1.1006e-002, 1.3152e-005
 775.03000,221.56416, 1.1013e-002, 1.4072e-005
 775.53000,221.75342, 1.1020e-002, 1.3809e-005
 776.03000,221.94240, 1.1027e-002, 1.4622e-005
 776.53000,222.13089, 1.1035e-002, 1.7965e-005
 777.03000,222.31873, 1.1043e-002, 1.3697e-005
 777.53000,222.50607, 1.1050e-002, 1.6145e-005
 778.03000,222.69334, 1.1058e-002, 1.4373e-005
 778.53000,222.88016, 1.1065e-002, 1.5063e-005
 779.03000,223.06756, 1.1073e-002, 1.5100e-005
 779.53000,223.25501, 1.1080e-002, 1.4938e-005
 780.03000,223.44337, 1.1088e-002, 1.4511e-005
 780.53000,223.63281, 1.1095e-002, 1.5491e-005
 781.03000,223.82282, 1.1103e-002, 1.4495e-005
 781.53000,224.01313, 1.1110e-002, 1.5408e-005
 782.03000,224.20311, 1.1119e-002, 1.7799e-005
 782.53000,224.39288, 1.1127e-002, 1.5467e-005
 783.03000,224.58316, 1.1134e-002, 1.6170e-005
 783.53000,224.77402, 1.1142e-002, 1.5329e-005
 784.03000,224.96577, 1.1150e-002, 1.7258e-005
 784.53000,225.15760, 1.1158e-002, 1.5149e-005
 785.03000,225.34963, 1.1166e-002, 1.6773e-005
 785.53000,225.54147, 1.1173e-002, 1.4966e-005
 786.03000,225.73389, 1.1182e-002, 1.5154e-005
 786.53000,225.92669, 1.1190e-002, 1.4873e-005
 787.03000,226.11939, 1.1198e-002, 1.7742e-005
 787.53000,226.31185, 1.1205e-002, 1.4190e-005
 788.03000,226.50391, 1.1213e-002, 1.6303e-005
 788.53000,226.69790, 1.1221e-002, 1.5985e-005
 789.03000,226.89415, 1.1229e-002, 1.6387e-005
 789.53000,227.09334, 1.1237e-002, 1.6224e-005
 790.03000,227.29438, 1.1245e-002, 1.4886e-005
 790.53000,227.49745, 1.1252e-002, 1.6354e-005
 791.03000,227.70160, 1.1261e-002, 1.5551e-005
 791.53000,227.90646, 1.1269e-002, 1.5841e-005
 792.03000,228.11061, 1.1277e-002, 1.4739e-005
 792.53000,228.31408, 1.1285e-002, 1.6096e-005
 793.03000,228.51747, 1.1293e-002, 1.8199e-005
 793.53000,228.72161, 1.1301e-002, 1.4566e-005
 794.03000,228.92701, 1.1309e-002, 1.6396e-005
 794.53000,229.13356, 1.1317e-002, 1.4345e-005
 795.03000,229.34122, 1.1324e-002, 1.6313e-005
 795.53000,229.55026, 1.1333e-002, 1.5951e-005
 796.03000,229.76054, 1.1340e-002, 1.5276e-005
 796.53000,229.97267, 1.1350e-002, 1.7668e-005
 797.03000,230.18757, 1.1357e-002, 1.6315e-005
 797.53000,230.40607, 1.1366e-002, 1.8320e-005
 798.03000,230.62821, 1.1375e-002, 1.5862e-005
 798.53000,230.85147, 1.1383e-002, 1.7583e-005
 799.03000,231.07331, 1.1391e-002, 1.7490e-005
 799.53000,231.29189, 1.1398e-002, 1.4837e-005
 800.03000,231.50694, 1.1405e-002, 1.5434e-005
 800.53000,231.71858, 1.1413e-002, 1.3651e-005
 801.03000,231.92765, 1.1421e-002, 1.4747e-005
 801.53000,232.13494, 1.1427e-002, 2.0209e-005
 802.03000,232.34147, 1.1436e-002, 1.4753e-005
 802.53000,232.54820, 1.1444e-002, 1.6974e-005
 803.03000,232.75537, 1.1452e-002, 1.5494e-005
 803.53000,232.96383, 1.1460e-002, 1.5793e-005
 804.03000,233.17397, 1.1468e-002, 1.8984e-005
 804.53000,233.38668, 1.1477e-002, 1.5954e-005
 805.03000,233.60135, 1.1485e-002, 1.4953e-005
 805.53000,233.81829, 1.1493e-002, 1.6559e-005
 806.03000,234.03659, 1.1501e-002, 1.6722e-005
 806.53000,234.25525, 1.1509e-002, 1.6052e-005
 807.03000,234.47454, 1.1518e-002, 1.4962e-005
 807.53000,234.69440, 1.1525e-002, 1.5967e-005
 808.03000,234.91334, 1.1532e-002, 1.5329e-005
 808.53000,235.13129, 1.1540e-002, 1.5554e-005
 809.03000,235.34640, 1.1548e-002, 1.6350e-005
 809.53000,235.56068, 1.1555e-002, 1.4234e-005
 810.03000,235.77452, 1.1563e-002, 1.5669e-005
 810.53000,235.98825, 1.1572e-002, 1.5573e-005
 811.03000,236.20234, 1.1579e-002, 1.5592e-005
 811.53000,236.41598, 1.1587e-002, 1.7311e-005
 812.03000,236.62921, 1.1595e-002, 1.4217e-005
 812.53000,236.84170, 1.1602e-002, 1.5968e-005
 813.03000,237.05311, 1.1610e-002, 1.5821e-005
 813.53000,237.26250, 1.1617e-002, 1.7119e-005
 814.03000,237.47015, 1.1624e-002, 1.4872e-005
 814.53000,237.67563, 1.1631e-002, 1.4543e-005
 815.03000,237.87990, 1.1639e-002, 1.4015e-005
 815.53000,238.08294, 1.1647e-002, 1.7300e-005
 816.03000,238.28460, 1.1654e-002, 1.3946e-005
 816.53000,238.48616, 1.1661e-002, 1.4490e-005
 817.03000,238.68654, 1.1668e-002, 1.4491e-005
 817.53000,238.88729, 1.1676e-002, 1.7119e-005
 818.03000,239.08837, 1.1684e-002, 1.4904e-005
 818.53000,239.29000, 1.1691e-002, 1.5273e-005
 819.03000,239.49220, 1.1698e-002, 1.6094e-005
 819.53000,239.69505, 1.1707e-002, 1.4652e-005
 820.03000,239.89823, 1.1715e-002, 1.5912e-005
 820.53000,240.10254, 1.1723e-002, 1.4793e-005
 821.03000,240.30629, 1.1730e-002, 1.5485e-005
 821.53000,240.50981, 1.1738e-002, 1.5565e-005
 822.03000,240.71290, 1.1746e-002, 1.5753e-005
 822.53000,240.91548, 1.1753e-002, 1.4735e-005
 823.03000,241.11854, 1.1761e-002, 1.4518e-005
 823.53000,241.32096, 1.1768e-002, 1.4760e-005
 824.03000,241.52349, 1.1777e-002, 1.4949e-005
 824.53000,241.72655, 1.1785e-002, 1.6011e-005
 825.03000,241.93000, 1.1792e-002, 1.4995e-005
 825.53000,242.13379, 1.1800e-002, 1.5887e-005
 826.03000,242.33737, 1.1808e-002, 1.6284e-005
 826.53000,242.54016, 1.1816e-002, 1.7477e-005
 827.03000,242.74307, 1.1824e-002, 1.5380e-005
 827.53000,242.94647, 1.1832e-002, 1.7587e-005
 828.03000,243.15044, 1.1840e-002, 1.3948e-005
 828.53000,243.35525, 1.1847e-002, 1.5893e-005
 829.03000,243.56031, 1.1854e-002, 1.4592e-005
 829.53000,243.76569, 1.1862e-002, 1.6941e-005
 830.03000,243.97176, 1.1871e-002, 1.5983e-005
 830.53000,244.17823, 1.1879e-002, 1.6050e-005
 831.03000,244.38427, 1.1887e-002, 1.6756e-005
 831.53000,244.58902, 1.1894e-002, 1.5401e-005
 832.03000,244.79160, 1.1903e-002, 1.5030e-005
 832.53000,244.99243, 1.1910e-002, 1.6344e-005
 833.03000,245.19158, 1.1917e-002, 1.3500e-005
 833.53000,245.38931, 1.1925e-002, 1.3897e-005
 834.03000,245.58586, 1.1932e-002, 1.5879e-005
 834.53000,245.78137, 1.1940e-002, 1.4103e-005
 835.03000,245.97548, 1.1947e-002, 1.5330e-005
 835.53000,246.16795, 1.1956e-002, 1.8069e-005
 836.03000,246.35934, 1.1962e-002, 1.5225e-005
 836.53000,246.54986, 1.1970e-002, 1.5203e-005
 837.03000,246.73969, 1.1978e-002, 1.4098e-005
 837.53000,246.92962, 1.1985e-002, 1.4223e-005
 838.03000,247.11916, 1.1992e-002, 1.4310e-005
 838.53000,247.30817, 1.2000e-002, 1.4452e-005
 839.03000,247.49686, 1.2007e-002, 1.4171e-005
 839.53000,247.68542, 1.2014e-002, 1.4884e-005
 840.03000,247.87382, 1.2022e-002, 1.3561e-005
 840.53000,248.06284, 1.2028e-002, 1.6410e-005
 841.03000,248.25158, 1.2037e-002, 1.5269e-005
 841.53000,248.43977, 1.2044e-002, 1.4137e-005
 842.03000,248.62776, 1.2052e-002, 1.4237e-005
 842.53000,248.81517, 1.2059e-002, 1.3275e-005
 843.03000,249.00200, 1.2066e-002, 1.4524e-005
 843.53000,249.18860, 1.2073e-002, 1.5090e-005
 844.03000,249.37531, 1.2081e-002, 1.5116e-005
 844.53000,249.56212, 1.2088e-002, 1.5004e-005
 845.03000,249.74903, 1.2095e-002, 1.5274e-005
 845.53000,249.93683, 1.2104e-002, 1.4608e-005
 846.03000,250.12519, 1.2111e-002, 1.5739e-005
 846.53000,250.31439, 1.2119e-002, 1.5783e-005
 847.03000,250.50392, 1.2127e-002, 1.5302e-005
 847.53000,250.69344, 1.2135e-002, 1.5004e-005
 848.03000,250.88325, 1.2141e-002, 1.4060e-005
 848.53000,251.07339, 1.2149e-002, 1.5208e-005
 849.03000,251.26374, 1.2156e-002, 1.5314e-005
 849.53000,251.45372, 1.2164e-002, 1.4843e-005
 850.03000,251.64371, 1.2172e-002, 1.5795e-005
 850.53000,251.83386, 1.2179e-002, 1.4129e-005
 851.03000,252.02478, 1.2186e-002, 1.4823e-005
 851.53000,252.21564, 1.2195e-002, 1.7025e-005
 852.03000,252.40657, 1.2202e-002, 1.5868e-005
 852.53000,252.59698, 1.2210e-002, 1.4082e-005
 853.03000,252.78704, 1.2217e-002, 1.4511e-005
 853.53000,252.97728, 1.2225e-002, 1.5718e-005
 854.03000,253.16780, 1.2232e-002, 1.5256e-005
 854.53000,253.35847, 1.2240e-002, 1.4437e-005
 855.03000,253.54954, 1.2247e-002, 1.4962e-005
 855.53000,253.74098, 1.2254e-002, 1.5227e-005
 856.03000,253.93222, 1.2262e-002, 1.6285e-005
 856.53000,254.12386, 1.2270e-002, 1.3842e-005
 857.03000,254.31542, 1.2277e-002, 1.4197e-005
 857.53000,254.50730, 1.2285e-002, 1.4009e-005
 858.03000,254.69888, 1.2292e-002, 1.5448e-005
 858.53000,254.89015, 1.2299e-002, 1.5085e-005
 859.03000,255.08087, 1.2306e-002, 1.4683e-005
 859.53000,255.27126, 1.2313e-002, 1.4739e-005
 860.03000,255.46213, 1.2321e-002, 1.3568e-005
 860.53000,255.65378, 1.2328e-002, 1.3624e-005
 861.03000,255.84582, 1.2335e-002, 1.3838e-005
 861.53000,256.03769, 1.2343e-002, 1.5352e-005
 862.03000,256.22953, 1.2351e-002, 1.5318e-005
 862.53000,256.42106, 1.2358e-002, 1.4077e-005
 863.03000,256.61317, 1.2365e-002, 1.5686e-005
 863.53000,256.80527, 1.2374e-002, 1.8843e-005
 864.03000,256.99725, 1.2381e-002, 1.4616e-005
 864.53000,257.18929, 1.2389e-002, 1.5218e-005
 865.03000,257.38138, 1.2396e-002, 1.4717e-005
 865.53000,257.57398, 1.2404e-002, 1.5917e-005
 866.03000,257.76702, 1.2411e-002, 1.4894e-005
 866.53000,257.96108, 1.2418e-002, 1.4243e-005
 867.03000,258.15613, 1.2426e-002, 1.4723e-005
 867.53000,258.35139, 1.2434e-002, 1.5415e-005
 868.03000,258.54654, 1.2441e-002, 1.4688e-005
 868.53000,258.74153, 1.2449e-002, 1.5245e-005
 869.03000,258.93669, 1.2457e-002, 1.4499e-005
 869.53000,259.13230, 1.2464e-002, 1.4685e-005
 870.03000,259.32820, 1.2472e-002, 1.5163e-005
 870.53000,259.52520, 1.2479e-002, 1.5171e-005
 871.03000,259.72311, 1.2487e-002, 1.5545e-005
 871.53000,259.92208, 1.2495e-002, 1.5758e-005
 872.03000,260.12261, 1.2502e-002, 1.5643e-005
 872.53000,260.32421, 1.2510e-002, 1.5784e-005
 873.03000,260.52617, 1.2518e-002, 1.5166e-005
 873.53000,260.72811, 1.2526e-002, 1.5487e-005
 874.03000,260.92970, 1.2533e-002, 1.5122e-005
 874.53000,261.13134, 1.2541e-002, 1.4951e-005
 875.03000,261.33376, 1.2549e-002, 1.5393e-005
 875.53000,261.53737, 1.2557e-002, 1.5379e-005
 876.03000,261.74242, 1.2564e-002, 1.7104e-005
 876.53000,261.95018, 1.2572e-002, 1.6480e-005
 877.03000,262.16129, 1.2580e-002, 1.5552e-005
 877.53000,262.37613, 1.2588e-002, 1.6738e-005
 878.03000,262.59598, 1.2597e-002, 1.6661e-005
 878.53000,262.82089, 1.2606e-002, 1.5677e-005
 879.03000,263.05231, 1.2614e-002, 1.7490e-005
 879.53000,263.28756, 1.2623e-002, 1.8215e-005
 880.03000,263.52244, 1.2631e-002, 1.6148e-005
 880.53000,263.75320, 1.2639e-002, 1.4779e-005
 881.03000,263.98155, 1.2647e-002, 1.6056e-005
 881.53000,264.20827, 1.2654e-002, 1.5005e-005
 882.03000,264.43302, 1.2662e-002, 1.5633e-005
 882.53000,264.65203, 1.2669e-002, 1.5477e-005
 883.03000,264.86480, 1.2677e-002, 1.5671e-005
 883.53000,265.07038, 1.2685e-002, 1.4094e-005
 884.03000,265.27155, 1.2691e-002, 1.4128e-005
 884.53000,265.46836, 1.2699e-002, 1.4723e-005
 885.03000,265.66337, 1.2706e-002, 1.4916e-005
 885.53000,265.85679, 1.2714e-002, 1.5951e-005
 886.03000,266.05064, 1.2721e-002, 1.5880e-005
 886.53000,266.24570, 1.2729e-002, 1.5203e-005
 887.03000,266.44314, 1.2737e-002, 1.5098e-005
 887.53000,266.64276, 1.2744e-002, 1.6141e-005
 888.03000,266.84370, 1.2753e-002, 1.5246e-005
 888.53000,267.04612, 1.2760e-002, 1.4565e-005
 889.03000,267.24887, 1.2768e-002, 1.4951e-005
 889.53000,267.45168, 1.2775e-002, 1.4965e-005
 890.03000,267.65332, 1.2782e-002, 1.4839e-005
 890.53000,267.85325, 1.2790e-002, 1.3865e-005
 891.03000,268.05201, 1.2797e-002, 1.3653e-005
 891.53000,268.24912, 1.2804e-002, 1.4137e-005
 892.03000,268.44614, 1.2812e-002, 1.8795e-005
 892.53000,268.64248, 1.2819e-002, 1.4398e-005
 893.03000,268.83906, 1.2827e-002, 1.4805e-005
 893.53000,269.03643, 1.2834e-002, 1.5412e-005
 894.03000,269.23382, 1.2842e-002, 1.5197e-005
 894.53000,269.43120, 1.2848e-002, 1.4058e-005
 895.03000,269.62895, 1.2856e-002, 1.5327e-005
 895.53000,269.82566, 1.2863e-002, 1.4246e-005
 896.03000,270.02239, 1.2870e-002, 1.4788e-005
 896.53000,270.21877, 1.2877e-002, 1.4733e-005
 897.03000,270.41525, 1.2885e-002, 1.4804e-005
 897.53000,270.61275, 1.2893e-002, 1.4897e-005
 898.03000,270.81123, 1.2900e-002, 1.5263e-005
 898.53000,271.01097, 1.2907e-002, 1.3718e-005
 899.03000,271.21151, 1.2915e-002, 1.5086e-005
 899.53000,271.41255, 1.2922e-002, 1.4723e-005
 900.03000,271.61395, 1.2929e-002, 1.4855e-005
 900.53000,271.81575, 1.2938e-002, 1.4686e-005
 901.03000,272.01808, 1.2945e-002, 1.3830e-005
 901.53000,272.22142, 1.2952e-002, 1.4803e-005
 902.03000,272.42559, 1.2960e-002, 1.5081e-005
 902.53000,272.63027, 1.2967e-002, 1.4396e-005
 903.03000,272.83480, 1.2975e-002, 1.4439e-005
 903.53000,273.03861, 1.2982e-002, 1.4888e-005
 904.03000,273.24192, 1.2989e-002, 1.4870e-005
 904.53000,273.44407, 1.2996e-002, 1.4102e-005
 905.03000,273.64572, 1.3004e-002, 1.4966e-005
 905.53000,273.84724, 1.3013e-002, 1.8418e-005
 906.03000,274.04992, 1.3020e-002, 1.5483e-005
 906.53000,274.25388, 1.3028e-002, 1.5932e-005
 907.03000,274.45976, 1.3035e-002, 1.6110e-005
 907.53000,274.66741, 1.3043e-002, 1.4494e-005
 908.03000,274.87750, 1.3051e-002, 1.5111e-005
 908.53000,275.08866, 1.3058e-002, 1.5724e-005
 909.03000,275.30045, 1.3066e-002, 1.6664e-005
 909.53000,275.51321, 1.3074e-002, 1.4478e-005
 910.03000,275.72662, 1.3081e-002, 1.5085e-005
 910.53000,275.94200, 1.3089e-002, 1.5552e-005
 911.03000,276.15962, 1.3097e-002, 1.5042e-005
 911.53000,276.37980, 1.3105e-002, 1.5650e-005
 912.03000,276.60391, 1.3113e-002, 1.6852e-005
 912.53000,276.83284, 1.3121e-002, 1.5841e-005
 913.03000,277.06915, 1.3131e-002, 1.6616e-005
 913.53000,277.31548, 1.3139e-002, 1.6663e-005
 914.03000,277.57499, 1.3148e-002, 1.7456e-005
 914.53000,277.85073, 1.3158e-002, 1.9495e-005
 915.03000,278.14198, 1.3167e-002, 1.9377e-005
 915.53000,278.43539, 1.3176e-002, 1.5970e-005
 916.03000,278.71689, 1.3183e-002, 1.4665e-005
 916.53000,278.98392, 1.3189e-002, 1.3454e-005
 917.03000,279.23769, 1.3196e-002, 1.3264e-005
 917.53000,279.47748, 1.3202e-002, 1.2563e-005
 918.03000,279.70098, 1.3209e-002, 1.2259e-005
 918.53000,279.90962, 1.3215e-002, 1.1268e-005
 919.03000,280.10639, 1.3220e-002, 9.9325e-006
 919.53000,280.29639, 1.3225e-002, 1.2692e-005
 920.03000,280.48436, 1.3234e-002, 1.8903e-005
 920.53000,280.67341, 1.3241e-002, 1.4962e-005
 921.03000,280.86492, 1.3248e-002, 1.6104e-005
 921.53000,281.05947, 1.3256e-002, 1.6781e-005
 922.03000,281.25600, 1.3264e-002, 1.5926e-005
 922.53000,281.45302, 1.3272e-002, 1.4759e-005
 923.03000,281.64870, 1.3279e-002, 1.4699e-005
 923.53000,281.84179, 1.3286e-002, 1.4483e-005
 924.03000,282.03190, 1.3293e-002, 1.2317e-005
 924.53000,282.22009, 1.3300e-002, 1.3068e-005
 925.03000,282.40712, 1.3307e-002, 1.4570e-005
 925.53000,282.59305, 1.3314e-002, 1.4485e-005
 926.03000,282.77912, 1.3321e-002, 1.4252e-005
 926.53000,282.96557, 1.3329e-002, 1.4665e-005
 927.03000,283.15349, 1.3336e-002, 1.4967e-005
 927.53000,283.34393, 1.3343e-002, 1.8906e-005
 928.03000,283.53670, 1.3353e-002, 1.5865e-005
 928.53000,283.73201, 1.3361e-002, 1.5870e-005
 929.03000,283.92971, 1.3369e-002, 1.5232e-005
 929.53000,284.12928, 1.3376e-002, 1.4884e-005
 930.03000,284.33014, 1.3384e-002, 1.4425e-005
 930.53000,284.52993, 1.3392e-002, 1.4878e-005
 931.03000,284.72702, 1.3399e-002, 1.3662e-005
 931.53000,284.92001, 1.3406e-002, 1.3068e-005
 932.03000,285.10831, 1.3412e-002, 1.3680e-005
 932.53000,285.29385, 1.3419e-002, 1.3541e-005
 933.03000,285.47794, 1.3426e-002, 1.5261e-005
 933.53000,285.66423, 1.3434e-002, 1.5052e-005
 934.03000,285.85559, 1.3442e-002, 1.8541e-005
 934.53000,286.05513, 1.3452e-002, 1.8421e-005
 935.03000,286.26353, 1.3461e-002, 1.8195e-005
 935.53000,286.47947, 1.3470e-002, 1.7410e-005
 936.03000,286.69879, 1.3478e-002, 1.5715e-005
 936.53000,286.91843, 1.3486e-002, 1.6434e-005
 937.03000,287.13367, 1.3494e-002, 1.4232e-005
 937.53000,287.34366, 1.3501e-002, 1.4543e-005
 938.03000,287.54828, 1.3508e-002, 1.2695e-005
 938.53000,287.74820, 1.3514e-002, 1.4388e-005
 939.03000,287.94523, 1.3522e-002, 1.3553e-005
 939.53000,288.13971, 1.3528e-002, 1.2869e-005
 940.03000,288.33151, 1.3535e-002, 1.4278e-005
 940.53000,288.52160, 1.3544e-002, 1.7206e-005
 941.03000,288.71153, 1.3550e-002, 1.3853e-005
 941.53000,288.90172, 1.3557e-002, 1.3988e-005
 942.03000,289.09206, 1.3565e-002, 1.3725e-005
 942.53000,289.27920, 1.3572e-002, 1.3887e-005
 943.03000,289.46055, 1.3579e-002, 1.3276e-005
 943.53000,289.63506, 1.3585e-002, 1.1708e-005
 944.03000,289.80395, 1.3591e-002, 1.2029e-005
 944.53000,289.96969, 1.3597e-002, 1.2730e-005
 945.03000,290.13532, 1.3604e-002, 1.3372e-005
 945.53000,290.30343, 1.3611e-002, 1.5668e-005
 946.03000,290.47717, 1.3619e-002, 1.7866e-005
 946.53000,290.65962, 1.3629e-002, 2.1574e-005
 947.03000,290.85033, 1.3638e-002, 1.7138e-005
 947.53000,291.04890, 1.3647e-002, 1.7530e-005
 948.03000,291.25031, 1.3655e-002, 1.6135e-005
 948.53000,291.45040, 1.3662e-002, 1.5448e-005
 949.03000,291.64782, 1.3670e-002, 1.4362e-005
 949.53000,291.84053, 1.3676e-002, 1.2311e-005
 950.03000,292.02948, 1.3683e-002, 1.2991e-005
 950.53000,292.21464, 1.3689e-002, 1.2729e-005
 951.03000,292.39644, 1.3695e-002, 1.3662e-005
 951.53000,292.57632, 1.3703e-002, 1.5176e-005
 952.03000,292.75462, 1.3710e-002, 1.3704e-005
 952.53000,292.93208, 1.3717e-002, 1.5336e-005
 953.03000,293.11018, 1.3725e-002, 1.3630e-005
 953.53000,293.29014, 1.3732e-002, 1.4847e-005
 954.03000,293.47330, 1.3739e-002, 1.5987e-005
 954.53000,293.66064, 1.3748e-002, 1.5234e-005
 955.03000,293.85163, 1.3755e-002, 1.5960e-005
 955.53000,294.04466, 1.3763e-002, 1.5914e-005
 956.03000,294.23842, 1.3771e-002, 1.5008e-005
 956.53000,294.43074, 1.3778e-002, 1.3543e-005
 957.03000,294.62052, 1.3785e-002, 1.3418e-005
 957.53000,294.80805, 1.3792e-002, 1.4276e-005
 958.03000,294.99358, 1.3799e-002, 1.3763e-005
 958.53000,295.17671, 1.3806e-002, 1.4734e-005
 959.03000,295.35779, 1.3813e-002, 1.4032e-005
 959.53000,295.53727, 1.3821e-002, 1.4015e-005
 960.03000,295.71605, 1.3827e-002, 1.2677e-005
 960.53000,295.89499, 1.3834e-002, 1.5011e-005
 961.03000,296.07543, 1.3842e-002, 1.4894e-005
 961.53000,296.25745, 1.3849e-002, 1.6055e-005
 962.03000,296.44048, 1.3857e-002, 1.5973e-005
 962.53000,296.62545, 1.3865e-002, 1.5456e-005
 963.03000,296.81246, 1.3872e-002, 1.5375e-005
 963.53000,297.00166, 1.3879e-002, 1.5726e-005
 964.03000,297.19329, 1.3887e-002, 1.4865e-005
 964.53000,297.38697, 1.3895e-002, 2.0335e-005
 965.03000,297.58306, 1.3904e-002, 1.5861e-005
 965.53000,297.78066, 1.3912e-002, 1.5556e-005
 966.03000,297.97814, 1.3920e-002, 1.5437e-005
 966.53000,298.17294, 1.3927e-002, 1.4188e-005
 967.03000,298.36256, 1.3934e-002, 1.3344e-005
 967.53000,298.54694, 1.3940e-002, 1.4162e-005
 968.03000,298.72834, 1.3947e-002, 1.2310e-005
 968.53000,298.90755, 1.3954e-002, 1.3710e-005
 969.03000,299.08641, 1.3961e-002, 1.4819e-005
 969.53000,299.26555, 1.3968e-002, 1.5950e-005
 970.03000,299.44401, 1.3976e-002, 1.4600e-005
 970.53000,299.62290, 1.3983e-002, 1.5317e-005
 971.03000,299.80155, 1.3990e-002, 1.5134e-005
 971.53000,299.98075, 1.3998e-002, 1.4059e-005
 972.03000,300.16072, 1.4005e-002, 1.5027e-005
 972.53000,300.34019, 1.4013e-002, 1.5522e-005
 973.03000,300.52001, 1.4020e-002, 1.5334e-005
 973.53000,300.70006, 1.4028e-002, 1.4573e-005
 974.03000,300.88103, 1.4035e-002, 2.1046e-005
 974.53000,301.06394, 1.4045e-002, 1.4814e-005
 975.03000,301.24924, 1.4052e-002, 1.4786e-005
 975.53000,301.43555, 1.4060e-002, 1.6556e-005
 976.03000,301.62270, 1.4068e-002, 1.5716e-005
 976.53000,301.81241, 1.4075e-002, 1.5120e-005
 977.03000,302.00147, 1.4083e-002, 1.5645e-005
 977.53000,302.19261, 1.4091e-002, 1.5630e-005
 978.03000,302.38400, 1.4099e-002, 1.5120e-005
 978.53000,302.57228, 1.4106e-002, 1.4947e-005
 979.03000,302.75840, 1.4113e-002, 1.3428e-005
 979.53000,302.94089, 1.4120e-002, 1.3863e-005
 980.03000,303.12107, 1.4127e-002, 1.4114e-005
 980.53000,303.30002, 1.4134e-002, 1.5052e-005
 981.03000,303.47969, 1.4141e-002, 1.4450e-005
 981.53000,303.66052, 1.4149e-002, 1.6419e-005
 982.03000,303.84289, 1.4158e-002, 1.7665e-005
 982.53000,304.02734, 1.4166e-002, 1.6092e-005
 983.03000,304.21264, 1.4174e-002, 1.4920e-005
 983.53000,304.39800, 1.4182e-002, 1.7039e-005
 984.03000,304.58403, 1.4190e-002, 1.4371e-005
 984.53000,304.77117, 1.4198e-002, 1.5655e-005
 985.03000,304.96077, 1.4206e-002, 1.5812e-005
 985.53000,305.15349, 1.4214e-002, 1.7513e-005
 986.03000,305.34994, 1.4223e-002, 1.7081e-005
 986.53000,305.54941, 1.4231e-002, 1.6771e-005
 987.03000,305.75191, 1.4239e-002, 1.6464e-005
 987.53000,305.95510, 1.4247e-002, 1.6763e-005
 988.03000,306.15619, 1.4255e-002, 1.4738e-005
 988.53000,306.35260, 1.4262e-002, 1.4588e-005
 989.03000,306.54380, 1.4269e-002, 1.3634e-005
 989.53000,306.73038, 1.4276e-002, 1.5250e-005
 990.03000,306.91371, 1.4284e-002, 1.6951e-005
 990.53000,307.09455, 1.4291e-002, 1.4554e-005
 991.03000,307.27333, 1.4298e-002, 1.3766e-005
 991.53000,307.45143, 1.4306e-002, 1.5183e-005
 992.03000,307.63052, 1.4314e-002, 1.6095e-005
 992.53000,307.81081, 1.4321e-002, 1.5219e-005
 993.03000,307.99154, 1.4328e-002, 1.5198e-005
 993.53000,308.17190, 1.4336e-002, 1.4458e-005
 994.03000,308.35030, 1.4342e-002, 1.3630e-005
 994.53000,308.52708, 1.4349e-002, 1.4782e-005
 995.03000,308.70395, 1.4357e-002, 1.5353e-005
 995.53000,308.88245, 1.4365e-002, 1.5523e-005
 996.03000,309.06357, 1.4372e-002, 1.5861e-005
 996.53000,309.24850, 1.4381e-002, 1.7027e-005
 997.03000,309.43737, 1.4389e-002, 1.9613e-005
 997.53000,309.62937, 1.4397e-002, 1.5974e-005
 998.03000,309.82217, 1.4405e-002, 1.6240e-005
 998.53000,310.01322, 1.4413e-002, 1.5138e-005
 999.03000,310.19888, 1.4420e-002, 1.3053e-005
 999.53000,310.37855, 1.4426e-002, 1.2373e-005
1000.03000,310.55284, 1.4433e-002, 1.2718e-005
1000.53000,310.72300, 1.4439e-002, 1.3515e-005
1001.03000,310.89161, 1.4446e-002, 1.4184e-005
1001.53000,311.06034, 1.4453e-002, 1.4447e-005
1002.03000,311.23063, 1.4461e-002, 1.5355e-005
1002.53000,311.40377, 1.4468e-002, 1.5557e-005
1003.03000,311.58037, 1.4476e-002, 1.5885e-005
1003.53000,311.76013, 1.4484e-002, 1.6160e-005
1004.03000,311.94137, 1.4492e-002, 1.4736e-005
1004.53000,312.12350, 1.4499e-002, 1.4999e-005
1005.03000,312.30561, 1.4507e-002, 1.4120e-005
1005.53000,312.48743, 1.4514e-002, 1.7261e-005
1006.03000,312.67016, 1.4522e-002, 1.5010e-005
1006.53000,312.85294, 1.4529e-002, 1.3767e-005
1007.03000,313.03778, 1.4536e-002, 1.5287e-005
1007.53000,313.22223, 1.4543e-002, 1.4529e-005
1008.03000,313.40629, 1.4551e-002, 1.4245e-005
1008.53000,313.58974, 1.4558e-002, 1.4203e-005
1009.03000,313.77117, 1.4565e-002, 1.5228e-005
1009.53000,313.95282, 1.4572e-002, 1.4038e-005
1010.03000,314.13533, 1.4579e-002, 1.5279e-005
1010.53000,314.31998, 1.4587e-002, 1.5541e-005
1011.03000,314.50606, 1.4594e-002, 1.3519e-005
1011.53000,314.69348, 1.4602e-002, 1.4156e-005
1012.03000,314.88139, 1.4609e-002, 1.4620e-005
1012.53000,315.07090, 1.4616e-002, 1.4822e-005
1013.03000,315.26162, 1.4624e-002, 1.5946e-005
1013.53000,315.45270, 1.4633e-002, 1.5084e-005
1014.03000,315.64176, 1.4640e-002, 1.4225e-005
1014.53000,315.82736, 1.4647e-002, 1.4309e-005
1015.03000,316.01117, 1.4654e-002, 1.4497e-005
1015.53000,316.19501, 1.4661e-002, 1.4120e-005
1016.03000,316.37939, 1.4668e-002, 1.5556e-005
1016.53000,316.56503, 1.4676e-002, 1.3095e-005
1017.03000,316.75218, 1.4683e-002, 1.5458e-005
1017.53000,316.94053, 1.4691e-002, 1.4717e-005
1018.03000,317.12975, 1.4698e-002, 1.6598e-005
1018.53000,317.32100, 1.4706e-002, 1.5755e-005
1019.03000,317.51159, 1.4714e-002, 1.5148e-005
1019.53000,317.70160, 1.4721e-002, 1.4466e-005
1020.03000,317.89132, 1.4728e-002, 1.4955e-005
1020.53000,318.08022, 1.4736e-002, 1.4328e-005
1021.03000,318.26772, 1.4743e-002, 1.5456e-005
1021.53000,318.45450, 1.4751e-002, 1.5440e-005
1022.03000,318.64103, 1.4758e-002, 1.5469e-005
1022.53000,318.82809, 1.4766e-002, 1.5099e-005
1023.03000,319.01763, 1.4774e-002, 1.5808e-005
1023.53000,319.20884, 1.4782e-002, 1.5613e-005
1024.03000,319.40029, 1.4789e-002, 1.4893e-005
1024.53000,319.59235, 1.4797e-002, 1.3585e-005
1025.03000,319.78275, 1.4804e-002, 1.3762e-005
1025.53000,319.97290, 1.4811e-002, 1.4746e-005
1026.03000,320.16218, 1.4818e-002, 1.4787e-005
1026.53000,320.35076, 1.4826e-002, 1.5282e-005
1027.03000,320.54026, 1.4833e-002, 1.4682e-005
1027.53000,320.73086, 1.4841e-002, 1.5390e-005
1028.03000,320.92280, 1.4848e-002, 1.5156e-005
1028.53000,321.11585, 1.4856e-002, 1.4656e-005
1029.03000,321.31112, 1.4864e-002, 1.6532e-005
1029.53000,321.50910, 1.4872e-002, 1.8198e-005

